TITLE,
DATA TYPE,ULTRAVIOLET SPECTRUM
ORIGIN,JASCO
OWNER,
DATE,22/10/18
TIME,18:41:10
SPECTROMETER/DATA SYSTEM,
LOCALE,16393
RESOLUTION,
DELTAX,-0.2
XUNITS,NANOMETERS
YUNITS,ABSORBANCE
FIRSTX,  900.0000
LASTX,  200.0000
NPOINTS,    3501
FIRSTY,     0.01561
MAXY,     0.13451
MINY,     0.00955
XYDATA
900.0000,0.0156081
899.8000,0.0122721
899.6000,0.0118648
899.4000,0.0147304
899.2000,0.0164959
899.0000,0.0151998
898.8000,0.0148892
898.6000,0.0142206
898.4000,0.0133549
898.2000,0.0169743
898.0000,0.0186178
897.8000,0.0176836
897.6000,0.0186396
897.4000,0.0178172
897.2000,0.0151986
897.0000,0.0144269
896.8000,0.0140455
896.6000,0.0165424
896.4000,0.0140335
896.2000,0.0126188
896.0000,0.0158266
895.8000,0.0158516
895.6000,0.011673
895.4000,0.00955419
895.2000,0.0129506
895.0000,0.0142193
894.8000,0.0143179
894.6000,0.0136629
894.4000,0.0128779
894.2000,0.0147055
894.0000,0.0143431
893.8000,0.0151862
893.6000,0.0157109
893.4000,0.0158082
893.2000,0.0161235
893.0000,0.0134457
892.8000,0.0121258
892.6000,0.0118145
892.4000,0.0135228
892.2000,0.0147185
892.0000,0.0166046
891.8000,0.0157165
891.6000,0.0141864
891.4000,0.016254
891.2000,0.0143957
891.0000,0.0120761
890.8000,0.013447
890.6000,0.0139355
890.4000,0.0131835
890.2000,0.0123902
890.0000,0.0129395
889.8000,0.0138058
889.6000,0.0148172
889.4000,0.0157559
889.2000,0.0141458
889.0000,0.0148482
888.8000,0.0152553
888.6000,0.0130976
888.4000,0.0119439
888.2000,0.0134987
888.0000,0.0159881
887.8000,0.0153998
887.6000,0.0139113
887.4000,0.0155754
887.2000,0.0170052
887.0000,0.015422
886.8000,0.0153919
886.6000,0.0147586
886.4000,0.0149296
886.2000,0.0137275
886.0000,0.0113938
885.8000,0.0131573
885.6000,0.0141202
885.4000,0.0142908
885.2000,0.0151119
885.0000,0.0154707
884.8000,0.0143753
884.6000,0.0146127
884.4000,0.0149912
884.2000,0.0143429
884.0000,0.0134438
883.8000,0.0156011
883.6000,0.016191
883.4000,0.0156305
883.2000,0.0160914
883.0000,0.0154305
882.8000,0.0158065
882.6000,0.0146916
882.4000,0.0143603
882.2000,0.0152964
882.0000,0.0156818
881.8000,0.0160018
881.6000,0.0154349
881.4000,0.015165
881.2000,0.0159185
881.0000,0.014618
880.8000,0.0148784
880.6000,0.0153128
880.4000,0.0147207
880.2000,0.0139686
880.0000,0.0149996
879.8000,0.0152489
879.6000,0.0146153
879.4000,0.0161403
879.2000,0.016767
879.0000,0.0164801
878.8000,0.0148068
878.6000,0.014367
878.4000,0.0139597
878.2000,0.0141566
878.0000,0.0152374
877.8000,0.0148538
877.6000,0.0139763
877.4000,0.0137526
877.2000,0.0152066
877.0000,0.0155882
876.8000,0.0146564
876.6000,0.0145679
876.4000,0.0157367
876.2000,0.0164064
876.0000,0.0154919
875.8000,0.0158271
875.6000,0.0159643
875.4000,0.0149728
875.2000,0.0152217
875.0000,0.0155145
874.8000,0.0160678
874.6000,0.0162006
874.4000,0.0148367
874.2000,0.0151668
874.0000,0.0154927
873.8000,0.0148593
873.6000,0.0158456
873.4000,0.015828
873.2000,0.0157827
873.0000,0.0166092
872.8000,0.0164364
872.6000,0.0159252
872.4000,0.015405
872.2000,0.0151516
872.0000,0.0154816
871.8000,0.0148662
871.6000,0.0141858
871.4000,0.014472
871.2000,0.0150541
871.0000,0.0158551
870.8000,0.0152358
870.6000,0.0143082
870.4000,0.0153251
870.2000,0.0162114
870.0000,0.0151208
869.8000,0.0152196
869.6000,0.0149662
869.4000,0.0145992
869.2000,0.0158684
869.0000,0.0159021
868.8000,0.0154181
868.6000,0.015462
868.4000,0.0158048
868.2000,0.0153356
868.0000,0.0150101
867.8000,0.0155637
867.6000,0.0154189
867.4000,0.0150358
867.2000,0.0155829
867.0000,0.0157919
866.8000,0.0147889
866.6000,0.0152067
866.4000,0.0158412
866.2000,0.0159073
866.0000,0.016475
865.8000,0.0157259
865.6000,0.0149386
865.4000,0.0151466
865.2000,0.0156883
865.0000,0.0154463
864.8000,0.0156896
864.6000,0.016093
864.4000,0.0150816
864.2000,0.0153331
864.0000,0.015219
863.8000,0.0153292
863.6000,0.016393
863.4000,0.0164173
863.2000,0.0163948
863.0000,0.0162982
862.8000,0.0157784
862.6000,0.015612
862.4000,0.0151427
862.2000,0.0151351
862.0000,0.0161026
861.8000,0.0162359
861.6000,0.0161213
861.4000,0.0158201
861.2000,0.0156283
861.0000,0.0155933
860.8000,0.0153029
860.6000,0.0149841
860.4000,0.0154151
860.2000,0.0159491
860.0000,0.0156442
859.8000,0.015431
859.6000,0.0152004
859.4000,0.0150721
859.2000,0.0151881
859.0000,0.0156096
858.8000,0.0160264
858.6000,0.0160955
858.4000,0.0156224
858.2000,0.0156339
858.0000,0.0154155
857.8000,0.0149095
857.6000,0.0149772
857.4000,0.0156594
857.2000,0.0160194
857.0000,0.0152243
856.8000,0.0148596
856.6000,0.0150164
856.4000,0.0156328
856.2000,0.0159351
856.0000,0.0160638
855.8000,0.0161189
855.6000,0.0158734
855.4000,0.0157492
855.2000,0.0153925
855.0000,0.0153699
854.8000,0.0156919
854.6000,0.0155456
854.4000,0.0155587
854.2000,0.0152711
854.0000,0.0150291
853.8000,0.015389
853.6000,0.0150525
853.4000,0.0150122
853.2000,0.0154502
853.0000,0.0152484
852.8000,0.0155686
852.6000,0.0158359
852.4000,0.0156048
852.2000,0.0154099
852.0000,0.0150807
851.8000,0.015196
851.6000,0.0153209
851.4000,0.0154063
851.2000,0.015422
851.0000,0.0157567
850.8000,0.0160872
850.6000,0.0156209
850.4000,0.0154509
850.2000,0.0151511
850.0000,0.0150041
849.8000,0.0155472
849.6000,0.0158547
849.4000,0.0158355
849.2000,0.0160147
849.0000,0.0161685
848.8000,0.0156819
848.6000,0.0152582
848.4000,0.0154755
848.2000,0.0153163
848.0000,0.0147884
847.8000,0.0150495
847.6000,0.0154349
847.4000,0.0153453
847.2000,0.0152889
847.0000,0.0157573
846.8000,0.0157448
846.6000,0.0154412
846.4000,0.0157752
846.2000,0.0157526
846.0000,0.0156626
845.8000,0.0156472
845.6000,0.0156989
845.4000,0.0158084
845.2000,0.0156365
845.0000,0.0156252
844.8000,0.015382
844.6000,0.0150147
844.4000,0.0151919
844.2000,0.0156335
844.0000,0.0152069
843.8000,0.0150561
843.6000,0.0154601
843.4000,0.0155974
843.2000,0.0153387
843.0000,0.0151584
842.8000,0.0156254
842.6000,0.0160125
842.4000,0.0157271
842.2000,0.0155426
842.0000,0.015492
841.8000,0.0154444
841.6000,0.0156654
841.4000,0.0155272
841.2000,0.0153319
841.0000,0.0152614
840.8000,0.015253
840.6000,0.0153141
840.4000,0.0157655
840.2000,0.0159877
840.0000,0.0160742
839.8000,0.0161019
839.6000,0.0159094
839.4000,0.015778
839.2000,0.0155192
839.0000,0.0157508
838.8000,0.0161079
838.6000,0.0156718
838.4000,0.015282
838.2000,0.0157738
838.0000,0.0159635
837.8000,0.0159
837.6000,0.0158116
837.4000,0.0157031
837.2000,0.0156021
837.0000,0.015697
836.8000,0.0161568
836.6000,0.0163418
836.4000,0.0161576
836.2000,0.0154951
836.0000,0.0152926
835.8000,0.0157749
835.6000,0.0159542
835.4000,0.0159234
835.2000,0.0161606
835.0000,0.0163216
834.8000,0.0160843
834.6000,0.0155144
834.4000,0.015555
834.2000,0.0157807
834.0000,0.0159341
833.8000,0.0158017
833.6000,0.0157007
833.4000,0.0159351
833.2000,0.0158764
833.0000,0.0159097
832.8000,0.0157931
832.6000,0.0157081
832.4000,0.0160145
832.2000,0.0162351
832.0000,0.0162278
831.8000,0.0159004
831.6000,0.0157525
831.4000,0.0158638
831.2000,0.0154936
831.0000,0.0156595
830.8000,0.0159162
830.6000,0.0159256
830.4000,0.0162279
830.2000,0.0160934
830.0000,0.0160913
829.8000,0.0162779
829.6000,0.0163108
829.4000,0.0158293
829.2000,0.0154438
829.0000,0.0159793
828.8000,0.0158721
828.6000,0.0155027
828.4000,0.015382
828.2000,0.0157644
828.0000,0.0162449
827.8000,0.016073
827.6000,0.0161299
827.4000,0.0160054
827.2000,0.0159842
827.0000,0.0163062
826.8000,0.0159756
826.6000,0.0158061
826.4000,0.0163262
826.2000,0.0161566
826.0000,0.0160256
825.8000,0.016098
825.6000,0.0157132
825.4000,0.0159294
825.2000,0.0161891
825.0000,0.0160873
824.8000,0.0162692
824.6000,0.0163315
824.4000,0.0160209
824.2000,0.0156774
824.0000,0.015845
823.8000,0.0159817
823.6000,0.0160014
823.4000,0.0157463
823.2000,0.0157656
823.0000,0.0163161
822.8000,0.0160527
822.6000,0.015893
822.4000,0.0159007
822.2000,0.0158776
822.0000,0.0159041
821.8000,0.0156765
821.6000,0.0159173
821.4000,0.0160271
821.2000,0.0157324
821.0000,0.015773
820.8000,0.0159737
820.6000,0.0160366
820.4000,0.016037
820.2000,0.0161829
820.0000,0.0158838
819.8000,0.0158257
819.6000,0.0159218
819.4000,0.0156857
819.2000,0.015856
819.0000,0.0160483
818.8000,0.0162177
818.6000,0.0160846
818.4000,0.0160752
818.2000,0.0162675
818.0000,0.015916
817.8000,0.0157997
817.6000,0.0159501
817.4000,0.0159817
817.2000,0.0158568
817.0000,0.0160225
816.8000,0.016612
816.6000,0.0165974
816.4000,0.0162877
816.2000,0.0159676
816.0000,0.0157564
815.8000,0.0159136
815.6000,0.0160198
815.4000,0.0160083
815.2000,0.0157761
815.0000,0.015918
814.8000,0.0161795
814.6000,0.0162946
814.4000,0.0161724
814.2000,0.0160262
814.0000,0.0160593
813.8000,0.0158677
813.6000,0.0161514
813.4000,0.0164141
813.2000,0.0161341
813.0000,0.0159628
812.8000,0.0158408
812.6000,0.015999
812.4000,0.0165903
812.2000,0.0163819
812.0000,0.0159923
811.8000,0.0162509
811.6000,0.0162274
811.4000,0.0161745
811.2000,0.0162168
811.0000,0.0161918
810.8000,0.0162193
810.6000,0.0161094
810.4000,0.0164916
810.2000,0.0165214
810.0000,0.0163648
809.8000,0.016833
809.6000,0.016889
809.4000,0.0166546
809.2000,0.0165248
809.0000,0.016516
808.8000,0.0162706
808.6000,0.016438
808.4000,0.016568
808.2000,0.0162556
808.0000,0.0162404
807.8000,0.0164681
807.6000,0.0167041
807.4000,0.016305
807.2000,0.0160931
807.0000,0.0164406
806.8000,0.0164326
806.6000,0.0163209
806.4000,0.0163668
806.2000,0.0163537
806.0000,0.0162268
805.8000,0.0165543
805.6000,0.0164462
805.4000,0.0163718
805.2000,0.0166129
805.0000,0.0163207
804.8000,0.0164778
804.6000,0.0165626
804.4000,0.0165121
804.2000,0.016929
804.0000,0.0167853
803.8000,0.0163422
803.6000,0.01647
803.4000,0.0166248
803.2000,0.0165871
803.0000,0.0165615
802.8000,0.0166715
802.6000,0.0166319
802.4000,0.0164815
802.2000,0.0164772
802.0000,0.0167913
801.8000,0.0166844
801.6000,0.0164393
801.4000,0.0164594
801.2000,0.0166388
801.0000,0.0167812
800.8000,0.0166684
800.6000,0.0163806
800.4000,0.0162304
800.2000,0.0165142
800.0000,0.0164273
799.8000,0.0162816
799.6000,0.0165289
799.4000,0.0166412
799.2000,0.016682
799.0000,0.0164807
798.8000,0.0163994
798.6000,0.0165609
798.4000,0.0165293
798.2000,0.0164431
798.0000,0.0164205
797.8000,0.0167126
797.6000,0.0167017
797.4000,0.0166085
797.2000,0.0167669
797.0000,0.0166002
796.8000,0.0164817
796.6000,0.0167469
796.4000,0.0167011
796.2000,0.0164334
796.0000,0.0166574
795.8000,0.0167837
795.6000,0.0169002
795.4000,0.0168005
795.2000,0.0165501
795.0000,0.0165757
794.8000,0.01659
794.6000,0.016606
794.4000,0.0163541
794.2000,0.0164668
794.0000,0.0168029
793.8000,0.0165767
793.6000,0.0163998
793.4000,0.0167484
793.2000,0.0169223
793.0000,0.0166603
792.8000,0.0164406
792.6000,0.0162921
792.4000,0.0164686
792.2000,0.0167012
792.0000,0.016876
791.8000,0.0168365
791.6000,0.0166076
791.4000,0.0167936
791.2000,0.0167427
791.0000,0.0164918
790.8000,0.0163306
790.6000,0.0164441
790.4000,0.0166941
790.2000,0.0168462
790.0000,0.0167674
789.8000,0.0170965
789.6000,0.0172539
789.4000,0.016819
789.2000,0.0167048
789.0000,0.0168039
788.8000,0.0166892
788.6000,0.0164074
788.4000,0.0166016
788.2000,0.0165361
788.0000,0.0165246
787.8000,0.0167838
787.6000,0.017009
787.4000,0.0170122
787.2000,0.0168278
787.0000,0.0168548
786.8000,0.0168448
786.6000,0.0167854
786.4000,0.0168945
786.2000,0.0168357
786.0000,0.016627
785.8000,0.0167332
785.6000,0.0168429
785.4000,0.0168996
785.2000,0.0167556
785.0000,0.0166116
784.8000,0.0165575
784.6000,0.0165908
784.4000,0.0168791
784.2000,0.0170463
784.0000,0.0167981
783.8000,0.0168443
783.6000,0.0170928
783.4000,0.0170232
783.2000,0.017137
783.0000,0.0171318
782.8000,0.016814
782.6000,0.0166446
782.4000,0.0167343
782.2000,0.0167259
782.0000,0.016567
781.8000,0.0165386
781.6000,0.0167845
781.4000,0.0168196
781.2000,0.0168525
781.0000,0.0170144
780.8000,0.0171323
780.6000,0.0169616
780.4000,0.0169385
780.2000,0.0170219
780.0000,0.0171774
779.8000,0.0172228
779.6000,0.0169435
779.4000,0.0166971
779.2000,0.0169528
779.0000,0.0173011
778.8000,0.0172053
778.6000,0.017073
778.4000,0.0169287
778.2000,0.0168903
778.0000,0.0167824
777.8000,0.0169591
777.6000,0.016963
777.4000,0.0168808
777.2000,0.0167861
777.0000,0.016875
776.8000,0.0172347
776.6000,0.0172514
776.4000,0.0171831
776.2000,0.0170544
776.0000,0.0170031
775.8000,0.0172495
775.6000,0.017222
775.4000,0.0169639
775.2000,0.0168686
775.0000,0.0168851
774.8000,0.0169178
774.6000,0.0170108
774.4000,0.0170245
774.2000,0.0171605
774.0000,0.0171163
773.8000,0.0169762
773.6000,0.0169196
773.4000,0.0168143
773.2000,0.0171308
773.0000,0.0173705
772.8000,0.0172942
772.6000,0.0173366
772.4000,0.01734
772.2000,0.0172834
772.0000,0.0173894
771.8000,0.0172119
771.6000,0.0169946
771.4000,0.01684
771.2000,0.0169053
771.0000,0.0173695
770.8000,0.0175515
770.6000,0.0173269
770.4000,0.0170585
770.2000,0.0170096
770.0000,0.0169548
769.8000,0.0167969
769.6000,0.0169266
769.4000,0.0171582
769.2000,0.0172439
769.0000,0.0171315
768.8000,0.0168341
768.6000,0.0168015
768.4000,0.0172282
768.2000,0.017242
768.0000,0.0168798
767.8000,0.0172086
767.6000,0.0175875
767.4000,0.017188
767.2000,0.0170284
767.0000,0.0169151
766.8000,0.0168197
766.6000,0.0170993
766.4000,0.0172746
766.2000,0.0172079
766.0000,0.0173181
765.8000,0.0172394
765.6000,0.0168334
765.4000,0.0169486
765.2000,0.016975
765.0000,0.0169823
764.8000,0.0172807
764.6000,0.017472
764.4000,0.0175792
764.2000,0.017616
764.0000,0.0171414
763.8000,0.0168355
763.6000,0.0171814
763.4000,0.0171992
763.2000,0.0170294
763.0000,0.0170113
762.8000,0.0170932
762.6000,0.0173211
762.4000,0.017265
762.2000,0.0172641
762.0000,0.0172473
761.8000,0.0170913
761.6000,0.0171925
761.4000,0.0172763
761.2000,0.0170531
761.0000,0.0168902
760.8000,0.0169324
760.6000,0.0171731
760.4000,0.0174842
760.2000,0.0174658
760.0000,0.0173546
759.8000,0.0173295
759.6000,0.0174745
759.4000,0.0173987
759.2000,0.0172844
759.0000,0.0170916
758.8000,0.0168537
758.6000,0.0171786
758.4000,0.0174823
758.2000,0.0173173
758.0000,0.0173605
757.8000,0.0174584
757.6000,0.0174608
757.4000,0.0172153
757.2000,0.0169384
757.0000,0.017173
756.8000,0.0171975
756.6000,0.0173162
756.4000,0.0171903
756.2000,0.0170861
756.0000,0.0174835
755.8000,0.0175414
755.6000,0.0172157
755.4000,0.0171632
755.2000,0.0173311
755.0000,0.0173439
754.8000,0.017528
754.6000,0.017486
754.4000,0.0172198
754.2000,0.017079
754.0000,0.0170893
753.8000,0.0173311
753.6000,0.017426
753.4000,0.0173831
753.2000,0.0174555
753.0000,0.0174696
752.8000,0.0175139
752.6000,0.0173448
752.4000,0.017045
752.2000,0.0171554
752.0000,0.0171815
751.8000,0.0173615
751.6000,0.0175013
751.4000,0.0173613
751.2000,0.0175782
751.0000,0.017733
750.8000,0.0177287
750.6000,0.017564
750.4000,0.0172268
750.2000,0.0172149
750.0000,0.0174577
749.8000,0.0174054
749.6000,0.0171792
749.4000,0.0174137
749.2000,0.0175369
749.0000,0.0172702
748.8000,0.0172693
748.6000,0.017363
748.4000,0.0174114
748.2000,0.0173937
748.0000,0.0173832
747.8000,0.0175491
747.6000,0.0174965
747.4000,0.0175007
747.2000,0.017742
747.0000,0.0177784
746.8000,0.0175699
746.6000,0.0175891
746.4000,0.0177778
746.2000,0.0178666
746.0000,0.0175988
745.8000,0.0176449
745.6000,0.0177233
745.4000,0.0174147
745.2000,0.0175486
745.0000,0.0174076
744.8000,0.0171571
744.6000,0.0172947
744.4000,0.0174008
744.2000,0.0174243
744.0000,0.0172386
743.8000,0.0172537
743.6000,0.0177109
743.4000,0.0175558
743.2000,0.0175516
743.0000,0.0176898
742.8000,0.0174512
742.6000,0.0174429
742.4000,0.0173396
742.2000,0.0175351
742.0000,0.0175445
741.8000,0.0172936
741.6000,0.0172445
741.4000,0.0172766
741.2000,0.0174877
741.0000,0.0175644
740.8000,0.0174906
740.6000,0.0174803
740.4000,0.0176748
740.2000,0.0177265
740.0000,0.0177506
739.8000,0.0178764
739.6000,0.0179258
739.4000,0.0176486
739.2000,0.017706
739.0000,0.0177651
738.8000,0.0177488
738.6000,0.0178465
738.4000,0.017917
738.2000,0.0179922
738.0000,0.0179877
737.8000,0.0179415
737.6000,0.0179834
737.4000,0.0178188
737.2000,0.0177463
737.0000,0.0178149
736.8000,0.0180893
736.6000,0.018263
736.4000,0.0179806
736.2000,0.0179667
736.0000,0.0177262
735.8000,0.0176824
735.6000,0.0181513
735.4000,0.0182339
735.2000,0.0182326
735.0000,0.0181613
734.8000,0.0179242
734.6000,0.0178606
734.4000,0.0176807
734.2000,0.0178587
734.0000,0.0179097
733.8000,0.0179499
733.6000,0.0181704
733.4000,0.0180283
733.2000,0.0178434
733.0000,0.0180817
732.8000,0.0182441
732.6000,0.0180878
732.4000,0.0180962
732.2000,0.018023
732.0000,0.0178167
731.8000,0.0179864
731.6000,0.0183472
731.4000,0.0182127
731.2000,0.017985
731.0000,0.0178317
730.8000,0.0177736
730.6000,0.0180108
730.4000,0.0181651
730.2000,0.0181138
730.0000,0.0180804
729.8000,0.0179993
729.6000,0.0179824
729.4000,0.0182534
729.2000,0.0181356
729.0000,0.0180733
728.8000,0.0181598
728.6000,0.0181858
728.4000,0.0184726
728.2000,0.0181883
728.0000,0.0179253
727.8000,0.0180644
727.6000,0.0181957
727.4000,0.0181602
727.2000,0.0179504
727.0000,0.018088
726.8000,0.0181777
726.6000,0.018231
726.4000,0.0182644
726.2000,0.0183357
726.0000,0.0183862
725.8000,0.0181776
725.6000,0.018177
725.4000,0.0183422
725.2000,0.0181732
725.0000,0.0180366
724.8000,0.0181805
724.6000,0.018274
724.4000,0.0183281
724.2000,0.0182635
724.0000,0.0181514
723.8000,0.0184437
723.6000,0.0187069
723.4000,0.0183503
723.2000,0.0181804
723.0000,0.0183934
722.8000,0.0185621
722.6000,0.0185795
722.4000,0.0186732
722.2000,0.018591
722.0000,0.0185018
721.8000,0.0184526
721.6000,0.0184149
721.4000,0.0183582
721.2000,0.0184885
721.0000,0.01869
720.8000,0.0184028
720.6000,0.0183866
720.4000,0.0182773
720.2000,0.0181729
720.0000,0.0183245
719.8000,0.0184614
719.6000,0.0187507
719.4000,0.0188839
719.2000,0.0186531
719.0000,0.0183858
718.8000,0.0184483
718.6000,0.0186969
718.4000,0.0186643
718.2000,0.0184477
718.0000,0.0185893
717.8000,0.018437
717.6000,0.0183771
717.4000,0.0185458
717.2000,0.0187257
717.0000,0.0187746
716.8000,0.0185148
716.6000,0.0185612
716.4000,0.0185916
716.2000,0.0183996
716.0000,0.0183966
715.8000,0.0184662
715.6000,0.0183105
715.4000,0.018399
715.2000,0.0184448
715.0000,0.0182269
714.8000,0.0181985
714.6000,0.0183343
714.4000,0.0183963
714.2000,0.0184884
714.0000,0.0187643
713.8000,0.0187699
713.6000,0.0186687
713.4000,0.0186512
713.2000,0.0185907
713.0000,0.0187347
712.8000,0.0187658
712.6000,0.0184728
712.4000,0.0183203
712.2000,0.0184651
712.0000,0.0185907
711.8000,0.0186653
711.6000,0.0185679
711.4000,0.0184268
711.2000,0.0186227
711.0000,0.0185689
710.8000,0.0184466
710.6000,0.0186907
710.4000,0.0186763
710.2000,0.01871
710.0000,0.0188295
709.8000,0.0187624
709.6000,0.0186533
709.4000,0.0184981
709.2000,0.0184176
709.0000,0.0186004
708.8000,0.0187602
708.6000,0.0188006
708.4000,0.0187545
708.2000,0.0186794
708.0000,0.0188305
707.8000,0.0187272
707.6000,0.0186419
707.4000,0.0186523
707.2000,0.0185767
707.0000,0.0187132
706.8000,0.0188017
706.6000,0.0188714
706.4000,0.0189176
706.2000,0.0187449
706.0000,0.0188433
705.8000,0.0190185
705.6000,0.018658
705.4000,0.018833
705.2000,0.0189758
705.0000,0.0186561
704.8000,0.0188339
704.6000,0.0188935
704.4000,0.0187606
704.2000,0.0187398
704.0000,0.0186784
703.8000,0.0188762
703.6000,0.0189984
703.4000,0.0187286
703.2000,0.0186531
703.0000,0.0186582
702.8000,0.0187593
702.6000,0.0189711
702.4000,0.01902
702.2000,0.0190496
702.0000,0.0189568
701.8000,0.0187887
701.6000,0.018967
701.4000,0.0192132
701.2000,0.0190515
701.0000,0.0189308
700.8000,0.0189389
700.6000,0.0188606
700.4000,0.0190054
700.2000,0.0190433
700.0000,0.0191341
699.8000,0.0189964
699.6000,0.0188082
699.4000,0.0188023
699.2000,0.0187106
699.0000,0.0188813
698.8000,0.0191594
698.6000,0.0192584
698.4000,0.0190968
698.2000,0.0190976
698.0000,0.0192224
697.8000,0.0191626
697.6000,0.0191545
697.4000,0.0191633
697.2000,0.0191369
697.0000,0.0190781
696.8000,0.019071
696.6000,0.019046
696.4000,0.0190829
696.2000,0.0191042
696.0000,0.0190916
695.8000,0.0193277
695.6000,0.0191742
695.4000,0.0189806
695.2000,0.0189571
695.0000,0.0189672
694.8000,0.0193396
694.6000,0.0192668
694.4000,0.0191515
694.2000,0.0192499
694.0000,0.0191038
693.8000,0.0191635
693.6000,0.0190946
693.4000,0.0189973
693.2000,0.0191318
693.0000,0.019305
692.8000,0.0192686
692.6000,0.0192545
692.4000,0.0193691
692.2000,0.019205
692.0000,0.0190621
691.8000,0.0192695
691.6000,0.0193441
691.4000,0.019308
691.2000,0.0191932
691.0000,0.0192258
690.8000,0.0192972
690.6000,0.0192031
690.4000,0.0191869
690.2000,0.0190069
690.0000,0.0189952
689.8000,0.0191441
689.6000,0.0192737
689.4000,0.0193632
689.2000,0.0193935
689.0000,0.0194863
688.8000,0.0192968
688.6000,0.0190792
688.4000,0.0190425
688.2000,0.0191599
688.0000,0.0192153
687.8000,0.019341
687.6000,0.0195188
687.4000,0.0192763
687.2000,0.0190901
687.0000,0.0191289
686.8000,0.0192441
686.6000,0.0192449
686.4000,0.019233
686.2000,0.0194435
686.0000,0.0193579
685.8000,0.0192808
685.6000,0.0194315
685.4000,0.019313
685.2000,0.0191645
685.0000,0.0193196
684.8000,0.0193947
684.6000,0.0194022
684.4000,0.0195
684.2000,0.0194118
684.0000,0.0192766
683.8000,0.0194343
683.6000,0.0194968
683.4000,0.0193652
683.2000,0.0194407
683.0000,0.019685
682.8000,0.0196411
682.6000,0.0194145
682.4000,0.0193979
682.2000,0.0193392
682.0000,0.0195158
681.8000,0.0195457
681.6000,0.0193542
681.4000,0.0193912
681.2000,0.0193204
681.0000,0.0193234
680.8000,0.0194049
680.6000,0.019458
680.4000,0.0194722
680.2000,0.0193146
680.0000,0.0193381
679.8000,0.01942
679.6000,0.0193439
679.4000,0.0192638
679.2000,0.0194586
679.0000,0.0195821
678.8000,0.019559
678.6000,0.0195842
678.4000,0.019625
678.2000,0.0197149
678.0000,0.0197452
677.8000,0.0196301
677.6000,0.0195514
677.4000,0.0194513
677.2000,0.0196015
677.0000,0.0197995
676.8000,0.0197788
676.6000,0.0195367
676.4000,0.0196015
676.2000,0.0197201
676.0000,0.019667
675.8000,0.0197405
675.6000,0.0194888
675.4000,0.019413
675.2000,0.0197195
675.0000,0.0198922
674.8000,0.0195205
674.6000,0.0194522
674.4000,0.0194798
674.2000,0.0194405
674.0000,0.0196934
673.8000,0.0198235
673.6000,0.019688
673.4000,0.0194306
673.2000,0.0194226
673.0000,0.0198151
672.8000,0.020053
672.6000,0.0198439
672.4000,0.0197394
672.2000,0.019627
672.0000,0.0195151
671.8000,0.0196381
671.6000,0.0196257
671.4000,0.0196223
671.2000,0.0196279
671.0000,0.0198204
670.8000,0.0200044
670.6000,0.0198016
670.4000,0.0198689
670.2000,0.0199484
670.0000,0.0201026
669.8000,0.0201668
669.6000,0.0197959
669.4000,0.0196707
669.2000,0.0199494
669.0000,0.0201431
668.8000,0.0200635
668.6000,0.0197959
668.4000,0.0196647
668.2000,0.0199546
668.0000,0.0200087
667.8000,0.0197198
667.6000,0.0196678
667.4000,0.0198522
667.2000,0.0198169
667.0000,0.0197342
666.8000,0.0198824
666.6000,0.0200577
666.4000,0.0199078
666.2000,0.0197874
666.0000,0.0199448
665.8000,0.0199865
665.6000,0.0200157
665.4000,0.0200094
665.2000,0.0200149
665.0000,0.0200839
664.8000,0.0200245
664.6000,0.0199552
664.4000,0.0200766
664.2000,0.0201606
664.0000,0.020205
663.8000,0.0203199
663.6000,0.0202467
663.4000,0.0200573
663.2000,0.0197846
663.0000,0.0198749
662.8000,0.0200054
662.6000,0.0198252
662.4000,0.0200359
662.2000,0.0202874
662.0000,0.0203
661.8000,0.0203868
661.6000,0.020207
661.4000,0.0201026
661.2000,0.0201004
661.0000,0.0201084
660.8000,0.0202536
660.6000,0.0201987
660.4000,0.0201467
660.2000,0.0201433
660.0000,0.0202779
659.8000,0.0202677
659.6000,0.0200266
659.4000,0.0200654
659.2000,0.0202929
659.0000,0.0202907
658.8000,0.0201873
658.6000,0.0200697
658.4000,0.0200795
658.2000,0.0202525
658.0000,0.0203154
657.8000,0.0203343
657.6000,0.0201924
657.4000,0.020202
657.2000,0.0205184
657.0000,0.0204214
656.8000,0.0201629
656.6000,0.0201649
656.4000,0.020171
656.2000,0.0202491
656.0000,0.0203956
655.8000,0.020449
655.6000,0.0205171
655.4000,0.0205002
655.2000,0.0205719
655.0000,0.0206188
654.8000,0.0204046
654.6000,0.0203478
654.4000,0.0206212
654.2000,0.0206034
654.0000,0.0203784
653.8000,0.0204752
653.6000,0.0204039
653.4000,0.0201712
653.2000,0.0203264
653.0000,0.0207552
652.8000,0.0206724
652.6000,0.0203708
652.4000,0.0205052
652.2000,0.0207168
652.0000,0.0205879
651.8000,0.0205398
651.6000,0.0206702
651.4000,0.0207242
651.2000,0.0206683
651.0000,0.0208427
650.8000,0.0207623
650.6000,0.0204789
650.4000,0.0204083
650.2000,0.0203876
650.0000,0.0205334
649.8000,0.0205986
649.6000,0.0205438
649.4000,0.0204559
649.2000,0.0203579
649.0000,0.0203352
648.8000,0.0203349
648.6000,0.0204381
648.4000,0.0205643
648.2000,0.0204175
648.0000,0.02032
647.8000,0.0204233
647.6000,0.0206012
647.4000,0.0209134
647.2000,0.0208803
647.0000,0.0206174
646.8000,0.0206222
646.6000,0.0206295
646.4000,0.020745
646.2000,0.0206705
646.0000,0.0207019
645.8000,0.0207568
645.6000,0.0205644
645.4000,0.0207062
645.2000,0.0207527
645.0000,0.0206481
644.8000,0.0206997
644.6000,0.0206526
644.4000,0.0206415
644.2000,0.0206372
644.0000,0.0206012
643.8000,0.0207382
643.6000,0.0208747
643.4000,0.0207739
643.2000,0.0207827
643.0000,0.0208718
642.8000,0.0208583
642.6000,0.0206359
642.4000,0.0204572
642.2000,0.0208574
642.0000,0.0210196
641.8000,0.0206856
641.6000,0.0205827
641.4000,0.0206097
641.2000,0.0207596
641.0000,0.0207248
640.8000,0.0208592
640.6000,0.0208891
640.4000,0.0207895
640.2000,0.0208043
640.0000,0.0207316
639.8000,0.020881
639.6000,0.0208953
639.4000,0.021081
639.2000,0.0212778
639.0000,0.0210879
638.8000,0.0208755
638.6000,0.0208744
638.4000,0.0210679
638.2000,0.0212124
638.0000,0.0210458
637.8000,0.0209081
637.6000,0.020995
637.4000,0.0210282
637.2000,0.0208915
637.0000,0.0208653
636.8000,0.0210158
636.6000,0.0211398
636.4000,0.0211297
636.2000,0.0210907
636.0000,0.0210013
635.8000,0.0210421
635.6000,0.0211207
635.4000,0.0210119
635.2000,0.0211533
635.0000,0.0211327
634.8000,0.0210688
634.6000,0.021208
634.4000,0.0213086
634.2000,0.0212697
634.0000,0.0210548
633.8000,0.0210651
633.6000,0.0211866
633.4000,0.0213661
633.2000,0.0213659
633.0000,0.0210659
632.8000,0.0210236
632.6000,0.0211072
632.4000,0.0210959
632.2000,0.0211584
632.0000,0.0213697
631.8000,0.0214134
631.6000,0.0211884
631.4000,0.0212174
631.2000,0.0212401
631.0000,0.0211948
630.8000,0.0211288
630.6000,0.0211721
630.4000,0.0212669
630.2000,0.0212508
630.0000,0.0213096
629.8000,0.0212747
629.6000,0.0212538
629.4000,0.0213988
629.2000,0.0213992
629.0000,0.0212419
628.8000,0.0209487
628.6000,0.0210711
628.4000,0.0214957
628.2000,0.0215378
628.0000,0.0213538
627.8000,0.0213608
627.6000,0.0215034
627.4000,0.0215622
627.2000,0.0216959
627.0000,0.0215973
626.8000,0.0216125
626.6000,0.0216478
626.4000,0.0214464
626.2000,0.0213836
626.0000,0.0212444
625.8000,0.021376
625.6000,0.0215685
625.4000,0.021269
625.2000,0.0212163
625.0000,0.0214479
624.8000,0.0215901
624.6000,0.0216674
624.4000,0.0215644
624.2000,0.0213807
624.0000,0.0214766
623.8000,0.0217515
623.6000,0.0217543
623.4000,0.0215788
623.2000,0.0216704
623.0000,0.0217622
622.8000,0.0216268
622.6000,0.0216881
622.4000,0.0218028
622.2000,0.0216717
622.0000,0.0216192
621.8000,0.0216015
621.6000,0.0213694
621.4000,0.0214751
621.2000,0.0216931
621.0000,0.0214934
620.8000,0.0215242
620.6000,0.0216455
620.4000,0.0214332
620.2000,0.0215314
620.0000,0.021578
619.8000,0.0216975
619.6000,0.0216954
619.4000,0.021713
619.2000,0.0216633
619.0000,0.0216114
618.8000,0.0216718
618.6000,0.0215606
618.4000,0.0215933
618.2000,0.0217566
618.0000,0.0217327
617.8000,0.0217786
617.6000,0.0219251
617.4000,0.0219589
617.2000,0.0216677
617.0000,0.0216971
616.8000,0.0218628
616.6000,0.0217324
616.4000,0.0215626
616.2000,0.0216088
616.0000,0.0219019
615.8000,0.0218156
615.6000,0.02167
615.4000,0.0217813
615.2000,0.0218871
615.0000,0.0219227
614.8000,0.0219267
614.6000,0.0219847
614.4000,0.0220281
614.2000,0.0219207
614.0000,0.0218488
613.8000,0.0218234
613.6000,0.021795
613.4000,0.0219091
613.2000,0.0219521
613.0000,0.0219168
612.8000,0.0218873
612.6000,0.021935
612.4000,0.0220997
612.2000,0.0220629
612.0000,0.0220804
611.8000,0.0222282
611.6000,0.0220475
611.4000,0.0217655
611.2000,0.0216774
611.0000,0.0219194
610.8000,0.0219774
610.6000,0.021942
610.4000,0.0221451
610.2000,0.0221716
610.0000,0.0221749
609.8000,0.0223717
609.6000,0.0222232
609.4000,0.0220921
609.2000,0.0221219
609.0000,0.022055
608.8000,0.0222484
608.6000,0.0221818
608.4000,0.0220573
608.2000,0.0221621
608.0000,0.0221984
607.8000,0.0223812
607.6000,0.0222059
607.4000,0.0221076
607.2000,0.0222953
607.0000,0.0222094
606.8000,0.0223596
606.6000,0.0223124
606.4000,0.022174
606.2000,0.0223214
606.0000,0.0223001
605.8000,0.0222429
605.6000,0.022319
605.4000,0.0222568
605.2000,0.0222037
605.0000,0.0223244
604.8000,0.0222954
604.6000,0.0222506
604.4000,0.0224165
604.2000,0.0224707
604.0000,0.0225264
603.8000,0.0226832
603.6000,0.0224625
603.4000,0.0223276
603.2000,0.0226108
603.0000,0.0226875
602.8000,0.0223185
602.6000,0.0221672
602.4000,0.0225314
602.2000,0.0227203
602.0000,0.0224916
601.8000,0.0225031
601.6000,0.0226443
601.4000,0.0225566
601.2000,0.0224261
601.0000,0.0223455
600.8000,0.02216
600.6000,0.0222305
600.4000,0.0226353
600.2000,0.0227165
600.0000,0.0225858
599.8000,0.0225804
599.6000,0.0226364
599.4000,0.0226051
599.2000,0.0226629
599.0000,0.0225989
598.8000,0.0225415
598.6000,0.0225992
598.4000,0.0226093
598.2000,0.0228508
598.0000,0.0228039
597.8000,0.0225493
597.6000,0.0224942
597.4000,0.0224984
597.2000,0.0225804
597.0000,0.0225299
596.8000,0.0226732
596.6000,0.0228343
596.4000,0.0228566
596.2000,0.022775
596.0000,0.0226073
595.8000,0.0226218
595.6000,0.0226406
595.4000,0.0226145
595.2000,0.0226838
595.0000,0.0226957
594.8000,0.0227614
594.6000,0.0229482
594.4000,0.0227305
594.2000,0.0226846
594.0000,0.0228573
593.8000,0.0226917
593.6000,0.0227054
593.4000,0.0228244
593.2000,0.0227591
593.0000,0.0229585
592.8000,0.0231891
592.6000,0.0231559
592.4000,0.0229222
592.2000,0.0228372
592.0000,0.0228807
591.8000,0.0228376
591.6000,0.0229921
591.4000,0.0229445
591.2000,0.0228255
591.0000,0.023021
590.8000,0.0231367
590.6000,0.0229978
590.4000,0.0230927
590.2000,0.0231141
590.0000,0.0230369
589.8000,0.0230608
589.6000,0.0231116
589.4000,0.023235
589.2000,0.0232118
589.0000,0.0232303
588.8000,0.0234599
588.6000,0.0235218
588.4000,0.0231291
588.2000,0.022897
588.0000,0.0230171
587.8000,0.0230289
587.6000,0.0228757
587.4000,0.0229939
587.2000,0.0232054
587.0000,0.0233881
586.8000,0.0232817
586.6000,0.0231668
586.4000,0.0232049
586.2000,0.0232273
586.0000,0.0233915
585.8000,0.0234319
585.6000,0.0233761
585.4000,0.023382
585.2000,0.0233761
585.0000,0.0232867
584.8000,0.023332
584.6000,0.0233659
584.4000,0.023443
584.2000,0.0235783
584.0000,0.0234026
583.8000,0.023434
583.6000,0.0233932
583.4000,0.0233142
583.2000,0.0233085
583.0000,0.0233138
582.8000,0.0233929
582.6000,0.0233075
582.4000,0.0235336
582.2000,0.0235205
582.0000,0.0234156
581.8000,0.0236977
581.6000,0.0235987
581.4000,0.023418
581.2000,0.0234923
581.0000,0.0234891
580.8000,0.0235923
580.6000,0.0236619
580.4000,0.0235497
580.2000,0.0234573
580.0000,0.0235145
579.8000,0.0236916
579.6000,0.0236568
579.4000,0.0235994
579.2000,0.0237184
579.0000,0.0237292
578.8000,0.0236939
578.6000,0.0235016
578.4000,0.02337
578.2000,0.023494
578.0000,0.0236955
577.8000,0.0237801
577.6000,0.0236329
577.4000,0.023503
577.2000,0.0235264
577.0000,0.0236205
576.8000,0.0235539
576.6000,0.0236768
576.4000,0.0240023
576.2000,0.0238554
576.0000,0.0236741
575.8000,0.0237745
575.6000,0.0238017
575.4000,0.0237274
575.2000,0.0236231
575.0000,0.0235423
574.8000,0.0237463
574.6000,0.0237877
574.4000,0.0238556
574.2000,0.0239123
574.0000,0.0238487
573.8000,0.0239035
573.6000,0.0238045
573.4000,0.0238688
573.2000,0.0240285
573.0000,0.0239885
572.8000,0.0238943
572.6000,0.023802
572.4000,0.0239653
572.2000,0.0241702
572.0000,0.0240536
571.8000,0.0240911
571.6000,0.0241664
571.4000,0.0242034
571.2000,0.0243197
571.0000,0.024182
570.8000,0.0240312
570.6000,0.0240858
570.4000,0.0241541
570.2000,0.0241333
570.0000,0.0240483
569.8000,0.0240707
569.6000,0.0241554
569.4000,0.0240807
569.2000,0.0242122
569.0000,0.0245343
568.8000,0.0243051
568.6000,0.0241353
568.4000,0.0243795
568.2000,0.0243311
568.0000,0.0240829
567.8000,0.0242061
567.6000,0.0243842
567.4000,0.0242538
567.2000,0.0242521
567.0000,0.024315
566.8000,0.0244221
566.6000,0.0245442
566.4000,0.0243242
566.2000,0.024433
566.0000,0.0246412
565.8000,0.0242981
565.6000,0.0243056
565.4000,0.0244282
565.2000,0.024427
565.0000,0.0243587
564.8000,0.0244062
564.6000,0.0243298
564.4000,0.0243577
564.2000,0.0245744
564.0000,0.0244043
563.8000,0.0244742
563.6000,0.0245544
563.4000,0.0245128
563.2000,0.024348
563.0000,0.0241693
562.8000,0.024182
562.6000,0.0241545
562.4000,0.0244253
562.2000,0.0247833
562.0000,0.024599
561.8000,0.0246746
561.6000,0.0246182
561.4000,0.0242947
561.2000,0.0245354
561.0000,0.0246468
560.8000,0.0246737
560.6000,0.0249104
560.4000,0.0248844
560.2000,0.0246815
560.0000,0.0246938
559.8000,0.0247252
559.6000,0.0246409
559.4000,0.0247135
559.2000,0.024823
559.0000,0.0248148
558.8000,0.0246762
558.6000,0.0245261
558.4000,0.0247271
558.2000,0.0248173
558.0000,0.0247408
557.8000,0.0248214
557.6000,0.0247917
557.4000,0.0249411
557.2000,0.0251412
557.0000,0.0249497
556.8000,0.0247403
556.6000,0.0249112
556.4000,0.0249831
556.2000,0.0249416
556.0000,0.0250822
555.8000,0.0252222
555.6000,0.0252388
555.4000,0.0250073
555.2000,0.0250488
555.0000,0.0250895
554.8000,0.0249714
554.6000,0.0250216
554.4000,0.0249984
554.2000,0.0251943
554.0000,0.0252158
553.8000,0.0250864
553.6000,0.0251373
553.4000,0.0250748
553.2000,0.0250758
553.0000,0.025078
552.8000,0.0251121
552.6000,0.025149
552.4000,0.0252031
552.2000,0.0252676
552.0000,0.0253815
551.8000,0.0255946
551.6000,0.025678
551.4000,0.0255623
551.2000,0.0252933
551.0000,0.025276
550.8000,0.0254898
550.6000,0.0254777
550.4000,0.0254526
550.2000,0.025571
550.0000,0.0256078
549.8000,0.0254803
549.6000,0.0254649
549.4000,0.0254134
549.2000,0.0252534
549.0000,0.0254818
548.8000,0.0254899
548.6000,0.025242
548.4000,0.0254038
548.2000,0.0256876
548.0000,0.0256742
547.8000,0.0255348
547.6000,0.0255442
547.4000,0.0256236
547.2000,0.0256357
547.0000,0.0255032
546.8000,0.0253677
546.6000,0.0254066
546.4000,0.0256635
546.2000,0.0257727
546.0000,0.0257809
545.8000,0.0258707
545.6000,0.0257455
545.4000,0.025728
545.2000,0.0258415
545.0000,0.0257796
544.8000,0.0253898
544.6000,0.0253757
544.4000,0.0257219
544.2000,0.025843
544.0000,0.0256853
543.8000,0.0254603
543.6000,0.0256364
543.4000,0.0258458
543.2000,0.025924
543.0000,0.0259838
542.8000,0.0258931
542.6000,0.0258946
542.4000,0.0258316
542.2000,0.0256475
542.0000,0.0258264
541.8000,0.025922
541.6000,0.0260235
541.4000,0.0262046
541.2000,0.0263218
541.0000,0.0259119
540.8000,0.0259017
540.6000,0.0261814
540.4000,0.0259675
540.2000,0.0260283
540.0000,0.0261663
539.8000,0.0261176
539.6000,0.0259975
539.4000,0.0260804
539.2000,0.0260055
539.0000,0.0260585
538.8000,0.0261751
538.6000,0.0260291
538.4000,0.0262498
538.2000,0.0263672
538.0000,0.0263476
537.8000,0.0263326
537.6000,0.0260697
537.4000,0.0262039
537.2000,0.0264776
537.0000,0.0263436
536.8000,0.0262006
536.6000,0.0264172
536.4000,0.0264831
536.2000,0.0263907
536.0000,0.0262878
535.8000,0.0263294
535.6000,0.0263882
535.4000,0.0264445
535.2000,0.0264832
535.0000,0.0264236
534.8000,0.0264752
534.6000,0.0264884
534.4000,0.0265127
534.2000,0.0265336
534.0000,0.0262771
533.8000,0.0264547
533.6000,0.0268515
533.4000,0.0267457
533.2000,0.0266363
533.0000,0.0266745
532.8000,0.026615
532.6000,0.0265942
532.4000,0.0268054
532.2000,0.0268615
532.0000,0.0267545
531.8000,0.0266087
531.6000,0.0266956
531.4000,0.0265805
531.2000,0.0263717
531.0000,0.0265667
530.8000,0.0267127
530.6000,0.0265959
530.4000,0.0265978
530.2000,0.0268564
530.0000,0.0269057
529.8000,0.0269268
529.6000,0.0269628
529.4000,0.0270038
529.2000,0.027075
529.0000,0.0269106
528.8000,0.0268763
528.6000,0.0270647
528.4000,0.0272626
528.2000,0.0270795
528.0000,0.0266866
527.8000,0.0267338
527.6000,0.0270953
527.4000,0.027194
527.2000,0.0271478
527.0000,0.0271941
526.8000,0.0271028
526.6000,0.027027
526.4000,0.0270965
526.2000,0.027133
526.0000,0.0272253
525.8000,0.0273237
525.6000,0.0271022
525.4000,0.0270029
525.2000,0.0273315
525.0000,0.0273335
524.8000,0.0271646
524.6000,0.0275699
524.4000,0.0276592
524.2000,0.0273572
524.0000,0.0276436
523.8000,0.0275508
523.6000,0.027195
523.4000,0.0273867
523.2000,0.027503
523.0000,0.0275872
522.8000,0.0277614
522.6000,0.0277856
522.4000,0.0273747
522.2000,0.0273982
522.0000,0.02777
521.8000,0.0275303
521.6000,0.027475
521.4000,0.0276904
521.2000,0.0277542
521.0000,0.0278019
520.8000,0.0277012
520.6000,0.0276053
520.4000,0.0274418
520.2000,0.027529
520.0000,0.0278277
519.8000,0.0279667
519.6000,0.0279826
519.4000,0.0277321
519.2000,0.0277408
519.0000,0.0281161
518.8000,0.0280194
518.6000,0.0278014
518.4000,0.0278414
518.2000,0.0279435
518.0000,0.0279048
517.8000,0.0278092
517.6000,0.0279444
517.4000,0.0280289
517.2000,0.0279354
517.0000,0.0277974
516.8000,0.0279372
516.6000,0.0280358
516.4000,0.0279455
516.2000,0.0278132
516.0000,0.0279679
515.8000,0.0281643
515.6000,0.0279518
515.4000,0.0282431
515.2000,0.0287297
515.0000,0.028544
514.8000,0.0282909
514.6000,0.0281421
514.4000,0.0281012
514.2000,0.0281604
514.0000,0.0282944
513.8000,0.0285217
513.6000,0.0284195
513.4000,0.0284634
513.2000,0.0284991
513.0000,0.0284687
512.8000,0.0284111
512.6000,0.0283426
512.4000,0.0285482
512.2000,0.0286312
512.0000,0.0284753
511.8000,0.0287017
511.6000,0.0288111
511.4000,0.0288111
511.2000,0.0289165
511.0000,0.0286926
510.8000,0.0287571
510.6000,0.028861
510.4000,0.0288271
510.2000,0.0288499
510.0000,0.028596
509.8000,0.0286195
509.6000,0.0284557
509.4000,0.0283784
509.2000,0.0287029
509.0000,0.0289826
508.8000,0.0288862
508.6000,0.0288695
508.4000,0.0288499
508.2000,0.0289133
508.0000,0.0290823
507.8000,0.0290752
507.6000,0.0292053
507.4000,0.02943
507.2000,0.0293939
507.0000,0.0290884
506.8000,0.0294095
506.6000,0.029888
506.4000,0.0295349
506.2000,0.0293248
506.0000,0.0293478
505.8000,0.0293811
505.6000,0.0293332
505.4000,0.0293297
505.2000,0.0292734
505.0000,0.02924
504.8000,0.0294875
504.6000,0.0296063
504.4000,0.0294491
504.2000,0.0296436
504.0000,0.0295979
503.8000,0.0294357
503.6000,0.0296998
503.4000,0.0296285
503.2000,0.029677
503.0000,0.0296783
502.8000,0.0297462
502.6000,0.0298136
502.4000,0.0297522
502.2000,0.029651
502.0000,0.0296706
501.8000,0.0296999
501.6000,0.0298123
501.4000,0.0298771
501.2000,0.0297781
501.0000,0.0296914
500.8000,0.0297524
500.6000,0.0298674
500.4000,0.0299033
500.2000,0.0298618
500.0000,0.0297165
499.8000,0.0298387
499.6000,0.0301371
499.4000,0.03042
499.2000,0.0303585
499.0000,0.0302319
498.8000,0.030273
498.6000,0.0301533
498.4000,0.0301793
498.2000,0.0302203
498.0000,0.0301732
497.8000,0.030348
497.6000,0.0302259
497.4000,0.0301266
497.2000,0.0301515
497.0000,0.0302552
496.8000,0.0305699
496.6000,0.0304375
496.4000,0.0304149
496.2000,0.03059
496.0000,0.0307483
495.8000,0.0307553
495.6000,0.0308185
495.4000,0.0308146
495.2000,0.0307154
495.0000,0.0308054
494.8000,0.0309681
494.6000,0.0310667
494.4000,0.0312161
494.2000,0.0312269
494.0000,0.0313051
493.8000,0.0313529
493.6000,0.030823
493.4000,0.0306704
493.2000,0.0307029
493.0000,0.0308072
492.8000,0.0309552
492.6000,0.0310568
492.4000,0.0311407
492.2000,0.0312955
492.0000,0.0312621
491.8000,0.0312614
491.6000,0.0316279
491.4000,0.0316441
491.2000,0.0314308
491.0000,0.0315188
490.8000,0.0313649
490.6000,0.031262
490.4000,0.0315384
490.2000,0.0316049
490.0000,0.0318555
489.8000,0.0318792
489.6000,0.0317998
489.4000,0.0320395
489.2000,0.0319876
489.0000,0.0319866
488.8000,0.0319161
488.6000,0.0316464
488.4000,0.031988
488.2000,0.0323405
488.0000,0.0320901
487.8000,0.0321445
487.6000,0.0324273
487.4000,0.0322233
487.2000,0.0321032
487.0000,0.0321331
486.8000,0.0322005
486.6000,0.0323851
486.4000,0.0326394
486.2000,0.0325769
486.0000,0.0325086
485.8000,0.0325392
485.6000,0.0326566
485.4000,0.0329037
485.2000,0.0328739
485.0000,0.0329755
484.8000,0.0329357
484.6000,0.0330472
484.4000,0.033235
484.2000,0.0331834
484.0000,0.0330991
483.8000,0.0332127
483.6000,0.0332207
483.4000,0.033318
483.2000,0.0332845
483.0000,0.0331866
482.8000,0.0331849
482.6000,0.0331561
482.4000,0.0336153
482.2000,0.0339579
482.0000,0.0338176
481.8000,0.0336724
481.6000,0.0340828
481.4000,0.0340798
481.2000,0.0338275
481.0000,0.0340427
480.8000,0.0340949
480.6000,0.0340521
480.4000,0.0341577
480.2000,0.0340603
480.0000,0.0340929
479.8000,0.0343057
479.6000,0.0343829
479.4000,0.0346011
479.2000,0.034689
479.0000,0.0347972
478.8000,0.0347663
478.6000,0.0346763
478.4000,0.034848
478.2000,0.0350152
478.0000,0.0350698
477.8000,0.034957
477.6000,0.0349061
477.4000,0.0348178
477.2000,0.0348098
477.0000,0.0350212
476.8000,0.0352319
476.6000,0.0354415
476.4000,0.0354725
476.2000,0.0352771
476.0000,0.0353875
475.8000,0.0354824
475.6000,0.0356989
475.4000,0.035893
475.2000,0.0357802
475.0000,0.035849
474.8000,0.0359749
474.6000,0.0359376
474.4000,0.0360348
474.2000,0.0362643
474.0000,0.0364406
473.8000,0.0364145
473.6000,0.0363407
473.4000,0.0364502
473.2000,0.0366471
473.0000,0.0366773
472.8000,0.0369303
472.6000,0.037038
472.4000,0.0370092
472.2000,0.0370382
472.0000,0.0370123
471.8000,0.0371308
471.6000,0.0370078
471.4000,0.0371711
471.2000,0.0374589
471.0000,0.0375999
470.8000,0.0378127
470.6000,0.037936
470.4000,0.0378741
470.2000,0.0380832
470.0000,0.0380255
469.8000,0.038108
469.6000,0.0383413
469.4000,0.038344
469.2000,0.0381876
469.0000,0.0383036
468.8000,0.0387176
468.6000,0.0386776
468.4000,0.0387703
468.2000,0.0389972
468.0000,0.0390991
467.8000,0.0390427
467.6000,0.0390856
467.4000,0.0392291
467.2000,0.0391721
467.0000,0.0393057
466.8000,0.0393983
466.6000,0.0392731
466.4000,0.0394999
466.2000,0.0398209
466.0000,0.0397456
465.8000,0.0397287
465.6000,0.0398232
465.4000,0.0397645
465.2000,0.0398985
465.0000,0.0398907
464.8000,0.0400991
464.6000,0.0401202
464.4000,0.0401017
464.2000,0.0406469
464.0000,0.0407664
463.8000,0.0407067
463.6000,0.0405989
463.4000,0.0407892
463.2000,0.0411525
463.0000,0.0412474
462.8000,0.0412894
462.6000,0.0413076
462.4000,0.0409342
462.2000,0.0411582
462.0000,0.0418086
461.8000,0.0417692
461.6000,0.0417506
461.4000,0.0418159
461.2000,0.0417891
461.0000,0.0417297
460.8000,0.0418232
460.6000,0.0422404
460.4000,0.0423283
460.2000,0.0420376
460.0000,0.0422238
459.8000,0.0425299
459.6000,0.042466
459.4000,0.0423748
459.2000,0.0426867
459.0000,0.0430311
458.8000,0.0429049
458.6000,0.0427447
458.4000,0.0429074
458.2000,0.0428286
458.0000,0.043083
457.8000,0.0433849
457.6000,0.0433651
457.4000,0.0434764
457.2000,0.0434809
457.0000,0.0436684
456.8000,0.0439819
456.6000,0.0440485
456.4000,0.0441239
456.2000,0.0441603
456.0000,0.0440242
455.8000,0.0438449
455.6000,0.0438544
455.4000,0.0440964
455.2000,0.0442378
455.0000,0.0444259
454.8000,0.0446781
454.6000,0.0446796
454.4000,0.0446166
454.2000,0.0447097
454.0000,0.0446498
453.8000,0.0445216
453.6000,0.0446106
453.4000,0.0451102
453.2000,0.0454278
453.0000,0.0454932
452.8000,0.0456969
452.6000,0.0455535
452.4000,0.0455253
452.2000,0.0458129
452.0000,0.0459957
451.8000,0.0457321
451.6000,0.0456115
451.4000,0.045683
451.2000,0.0456647
451.0000,0.0457621
450.8000,0.0459965
450.6000,0.0459513
450.4000,0.0458467
450.2000,0.0461794
450.0000,0.0459086
449.8000,0.0456345
449.6000,0.0458244
449.4000,0.0460231
449.2000,0.0462299
449.0000,0.046577
448.8000,0.0466243
448.6000,0.0463422
448.4000,0.0463183
448.2000,0.0464516
448.0000,0.04647
447.8000,0.0467545
447.6000,0.0465916
447.4000,0.0466113
447.2000,0.0472066
447.0000,0.0472734
446.8000,0.0470778
446.6000,0.0471972
446.4000,0.0471583
446.2000,0.0469416
446.0000,0.0471065
445.8000,0.0474506
445.6000,0.0474568
445.4000,0.0472748
445.2000,0.0472782
445.0000,0.0475018
444.8000,0.0479097
444.6000,0.0478668
444.4000,0.047742
444.2000,0.0478665
444.0000,0.0477233
443.8000,0.0476524
443.6000,0.0478898
443.4000,0.0481919
443.2000,0.0482858
443.0000,0.047961
442.8000,0.0478368
442.6000,0.0480864
442.4000,0.0480442
442.2000,0.0482432
442.0000,0.0486412
441.8000,0.0482683
441.6000,0.0481269
441.4000,0.0483917
441.2000,0.0483856
441.0000,0.0484047
440.8000,0.0483862
440.6000,0.0486841
440.4000,0.0491093
440.2000,0.0489909
440.0000,0.0487393
439.8000,0.0487791
439.6000,0.0487061
439.4000,0.0484775
439.2000,0.0486597
439.0000,0.0489487
438.8000,0.0488297
438.6000,0.048898
438.4000,0.0493409
438.2000,0.0496415
438.0000,0.0495124
437.8000,0.0492403
437.6000,0.0492389
437.4000,0.0493275
437.2000,0.0494416
437.0000,0.0495886
436.8000,0.0497621
436.6000,0.0497334
436.4000,0.0495206
436.2000,0.0496306
436.0000,0.0496629
435.8000,0.0494825
435.6000,0.0495779
435.4000,0.0499381
435.2000,0.049923
435.0000,0.0497658
434.8000,0.049833
434.6000,0.0502011
434.4000,0.0503391
434.2000,0.0500541
434.0000,0.0501697
433.8000,0.0501966
433.6000,0.0502682
433.4000,0.0501577
433.2000,0.04993
433.0000,0.0502732
432.8000,0.0507109
432.6000,0.0504077
432.4000,0.0501274
432.2000,0.0505313
432.0000,0.0505185
431.8000,0.050721
431.6000,0.0509888
431.4000,0.0506652
431.2000,0.0504381
431.0000,0.0508909
430.8000,0.0507222
430.6000,0.0505028
430.4000,0.0504554
430.2000,0.0502352
430.0000,0.0508142
429.8000,0.0511986
429.6000,0.0509608
429.4000,0.0507973
429.2000,0.0508468
429.0000,0.0508384
428.8000,0.0508125
428.6000,0.0510166
428.4000,0.0511694
428.2000,0.0510776
428.0000,0.0515724
427.8000,0.0514423
427.6000,0.0512967
427.4000,0.0517366
427.2000,0.051537
427.0000,0.0514138
426.8000,0.0512546
426.6000,0.0512297
426.4000,0.0514717
426.2000,0.0513239
426.0000,0.0514123
425.8000,0.0513847
425.6000,0.0514739
425.4000,0.0516066
425.2000,0.0515185
425.0000,0.0516787
424.8000,0.0520062
424.6000,0.0519617
424.4000,0.0517741
424.2000,0.0520647
424.0000,0.0521536
423.8000,0.0517689
423.6000,0.0519714
423.4000,0.0522684
423.2000,0.0520981
423.0000,0.0520828
422.8000,0.052153
422.6000,0.0523078
422.4000,0.0524566
422.2000,0.0524136
422.0000,0.0523967
421.8000,0.0523419
421.6000,0.0521572
421.4000,0.0522552
421.2000,0.0525137
421.0000,0.0525016
420.8000,0.0524498
420.6000,0.0526969
420.4000,0.0530094
420.2000,0.0533212
420.0000,0.0528929
419.8000,0.0527371
419.6000,0.0530295
419.4000,0.0526657
419.2000,0.0527495
419.0000,0.0530157
418.8000,0.0530586
418.6000,0.053219
418.4000,0.0532186
418.2000,0.0528206
418.0000,0.052963
417.8000,0.053499
417.6000,0.0533728
417.4000,0.053406
417.2000,0.0531263
417.0000,0.0530038
416.8000,0.053456
416.6000,0.0537152
416.4000,0.0537696
416.2000,0.0536894
416.0000,0.0536064
415.8000,0.0536889
415.6000,0.0539852
415.4000,0.0538325
415.2000,0.0536657
415.0000,0.0538761
414.8000,0.0537984
414.6000,0.05404
414.4000,0.0542535
414.2000,0.0539326
414.0000,0.0541312
413.8000,0.054664
413.6000,0.0545491
413.4000,0.0543577
413.2000,0.0542692
413.0000,0.0540097
412.8000,0.0543593
412.6000,0.0546741
412.4000,0.0546655
412.2000,0.0547691
412.0000,0.0548001
411.8000,0.0546229
411.6000,0.0546296
411.4000,0.0548225
411.2000,0.0548301
411.0000,0.0551949
410.8000,0.0551754
410.6000,0.0548027
410.4000,0.0545217
410.2000,0.0546829
410.0000,0.0552975
409.8000,0.0552781
409.6000,0.0554405
409.4000,0.0549852
409.2000,0.05469
409.0000,0.0550339
408.8000,0.0554371
408.6000,0.0556251
408.4000,0.0555982
408.2000,0.055258
408.0000,0.0554158
407.8000,0.0557267
407.6000,0.0554159
407.4000,0.0554591
407.2000,0.0554438
407.0000,0.055678
406.8000,0.0556555
406.6000,0.0554129
406.4000,0.0557396
406.2000,0.0562653
406.0000,0.0561534
405.8000,0.0559315
405.6000,0.0561782
405.4000,0.0561308
405.2000,0.0562755
405.0000,0.0565138
404.8000,0.056568
404.6000,0.0565927
404.4000,0.0562857
404.2000,0.056003
404.0000,0.0559501
403.8000,0.0560399
403.6000,0.056667
403.4000,0.0572268
403.2000,0.0569968
403.0000,0.05678
402.8000,0.0568085
402.6000,0.0571335
402.4000,0.057082
402.2000,0.0568346
402.0000,0.057382
401.8000,0.0576814
401.6000,0.0572893
401.4000,0.057218
401.2000,0.057519
401.0000,0.0573067
400.8000,0.0574324
400.6000,0.0580708
400.4000,0.0579706
400.2000,0.0579744
400.0000,0.0579529
399.8000,0.0576939
399.6000,0.0578763
399.4000,0.0580878
399.2000,0.0582381
399.0000,0.0580368
398.8000,0.0575491
398.6000,0.0575783
398.4000,0.058121
398.2000,0.058269
398.0000,0.0580514
397.8000,0.0581057
397.6000,0.0581838
397.4000,0.058099
397.2000,0.0585648
397.0000,0.0585029
396.8000,0.0583927
396.6000,0.0582267
396.4000,0.0580829
396.2000,0.0585783
396.0000,0.0586572
395.8000,0.0588774
395.6000,0.0596449
395.4000,0.0596333
395.2000,0.0588116
395.0000,0.0589812
394.8000,0.0596041
394.6000,0.0594581
394.4000,0.0591693
394.2000,0.0594387
394.0000,0.0596496
393.8000,0.0592748
393.6000,0.0594085
393.4000,0.059786
393.2000,0.0598934
393.0000,0.0596339
392.8000,0.0595531
392.6000,0.0595638
392.4000,0.059487
392.2000,0.0598296
392.0000,0.0600761
391.8000,0.0600184
391.6000,0.0601191
391.4000,0.0599981
391.2000,0.0598671
391.0000,0.0605795
390.8000,0.0602901
390.6000,0.0599606
390.4000,0.0607819
390.2000,0.0607434
390.0000,0.0607003
389.8000,0.0610563
389.6000,0.0607283
389.4000,0.0607839
389.2000,0.0608626
389.0000,0.0606284
388.8000,0.0609077
388.6000,0.0610525
388.4000,0.0608037
388.2000,0.0616051
388.0000,0.0619168
387.8000,0.061541
387.6000,0.0615155
387.4000,0.0612933
387.2000,0.0611841
387.0000,0.0610302
386.8000,0.0611595
386.6000,0.0615781
386.4000,0.0615737
386.2000,0.0613511
386.0000,0.0612409
385.8000,0.0619503
385.6000,0.0623911
385.4000,0.0622608
385.2000,0.0626813
385.0000,0.0625162
384.8000,0.0625709
384.6000,0.0629146
384.4000,0.0626319
384.2000,0.0627957
384.0000,0.0629044
383.8000,0.0622387
383.6000,0.0626623
383.4000,0.0631944
383.2000,0.0629602
383.0000,0.063054
382.8000,0.0625912
382.6000,0.0625739
382.4000,0.0630862
382.2000,0.0634569
382.0000,0.0636337
381.8000,0.0637953
381.6000,0.0637273
381.4000,0.0635178
381.2000,0.0635999
381.0000,0.0631744
380.8000,0.0636566
380.6000,0.0642426
380.4000,0.0639106
380.2000,0.0644518
380.0000,0.0644629
379.8000,0.0640299
379.6000,0.0642858
379.4000,0.0641608
379.2000,0.0641139
379.0000,0.0640816
378.8000,0.0643475
378.6000,0.0648492
378.4000,0.0647604
378.2000,0.0648663
378.0000,0.0650019
377.8000,0.064715
377.6000,0.0646137
377.4000,0.0645173
377.2000,0.0646115
377.0000,0.0647209
376.8000,0.0646806
376.6000,0.0649052
376.4000,0.0653854
376.2000,0.0658691
376.0000,0.065819
375.8000,0.0658872
375.6000,0.066047
375.4000,0.0662853
375.2000,0.0664543
375.0000,0.0664708
374.8000,0.0663327
374.6000,0.0663621
374.4000,0.0665102
374.2000,0.0666562
374.0000,0.0668532
373.8000,0.0670582
373.6000,0.0670699
373.4000,0.0663858
373.2000,0.0663056
373.0000,0.0660375
372.8000,0.0665218
372.6000,0.0673106
372.4000,0.0670412
372.2000,0.0671373
372.0000,0.0676527
371.8000,0.068268
371.6000,0.0678771
371.4000,0.0669947
371.2000,0.0675172
371.0000,0.068333
370.8000,0.0683482
370.6000,0.0682039
370.4000,0.0683104
370.2000,0.0685518
370.0000,0.0677279
369.8000,0.0679353
369.6000,0.0690854
369.4000,0.0694565
369.2000,0.0692572
369.0000,0.0687117
368.8000,0.068076
368.6000,0.0677665
368.4000,0.0675227
368.2000,0.0679965
368.0000,0.0690207
367.8000,0.0687567
367.6000,0.0687825
367.4000,0.0691927
367.2000,0.0695315
367.0000,0.0701854
366.8000,0.0701323
366.6000,0.0704181
366.4000,0.0695859
366.2000,0.0692684
366.0000,0.0706124
365.8000,0.0706839
365.6000,0.0705244
365.4000,0.0708063
365.2000,0.0706681
365.0000,0.0707922
364.8000,0.0710962
364.6000,0.0713879
364.4000,0.071001
364.2000,0.0708529
364.0000,0.0712571
363.8000,0.0709632
363.6000,0.0710134
363.4000,0.0713055
363.2000,0.0707989
363.0000,0.0711782
362.8000,0.0718875
362.6000,0.0727615
362.4000,0.0729828
362.2000,0.0716855
362.0000,0.0716533
361.8000,0.0721997
361.6000,0.0721891
361.4000,0.0723465
361.2000,0.0729004
361.0000,0.072638
360.8000,0.0725632
360.6000,0.0728795
360.4000,0.0730209
360.2000,0.0731648
360.0000,0.0732066
359.8000,0.07319
359.6000,0.0734626
359.4000,0.0741857
359.2000,0.0743093
359.0000,0.0737383
358.8000,0.0736235
358.6000,0.0738097
358.4000,0.0735054
358.2000,0.0740198
358.0000,0.0749379
357.8000,0.0750943
357.6000,0.0747361
357.4000,0.0750512
357.2000,0.0752421
357.0000,0.0749536
356.8000,0.075187
356.6000,0.0749577
356.4000,0.0747719
356.2000,0.0758419
356.0000,0.0763834
355.8000,0.0761162
355.6000,0.0761178
355.4000,0.0761254
355.2000,0.0760005
355.0000,0.0756714
354.8000,0.0755537
354.6000,0.0768025
354.4000,0.0773541
354.2000,0.0776723
354.0000,0.0776016
353.8000,0.0772176
353.6000,0.0769972
353.4000,0.0765477
353.2000,0.0771365
353.0000,0.077358
352.8000,0.0775616
352.6000,0.0779456
352.4000,0.0786852
352.2000,0.0784232
352.0000,0.0780641
351.8000,0.0781579
351.6000,0.0779189
351.4000,0.0778329
351.2000,0.078192
351.0000,0.0790458
350.8000,0.079442
350.6000,0.0797838
350.4000,0.0785848
350.2000,0.0782037
350.0000,0.0797571
349.8000,0.0787337
349.6000,0.0786175
349.4000,0.0805112
349.2000,0.0803202
349.0000,0.0797509
348.8000,0.0805931
348.6000,0.0806769
348.4000,0.07978
348.2000,0.0798056
348.0000,0.0798469
347.8000,0.0809392
347.6000,0.0815743
347.4000,0.0807512
347.2000,0.0811259
347.0000,0.0813586
346.8000,0.081965
346.6000,0.082339
346.4000,0.081875
346.2000,0.0821655
346.0000,0.0823343
345.8000,0.0818757
345.6000,0.0819083
345.4000,0.0827599
345.2000,0.0837896
345.0000,0.0834823
344.8000,0.0827808
344.6000,0.0836785
344.4000,0.0839306
344.2000,0.0839115
344.0000,0.0837687
343.8000,0.083214
343.6000,0.0841698
343.4000,0.0842708
343.2000,0.0843704
343.0000,0.084793
342.8000,0.0851113
342.6000,0.0852612
342.4000,0.0846575
342.2000,0.0851006
342.0000,0.0861385
341.8000,0.0867163
341.6000,0.0870453
341.4000,0.0858171
341.2000,0.0851544
341.0000,0.086163
340.8000,0.0871904
340.6000,0.0878161
340.4000,0.0871877
340.2000,0.0873723
340.0000,0.0870283
339.8000,0.0865852
339.6000,0.0861688
339.4000,0.0874682
339.2000,0.0879065
339.0000,0.0874975
338.8000,0.0873641
338.6000,0.0871334
338.4000,0.0873387
338.2000,0.0879553
338.0000,0.0882123
337.8000,0.0872975
337.6000,0.0872755
337.4000,0.0890236
337.2000,0.089397
337.0000,0.0889655
336.8000,0.0892117
336.6000,0.0896958
336.4000,0.0897206
336.2000,0.0898164
336.0000,0.0899985
335.8000,0.0902593
335.6000,0.090068
335.4000,0.09016
335.2000,0.0904445
335.0000,0.090128
334.8000,0.0907631
334.6000,0.0916329
334.4000,0.0908911
334.2000,0.0903653
334.0000,0.0911789
333.8000,0.0920419
333.6000,0.0925833
333.4000,0.0922809
333.2000,0.0920666
333.0000,0.0925231
332.8000,0.0931556
332.6000,0.0930549
332.4000,0.092939
332.2000,0.0933607
332.0000,0.0931027
331.8000,0.0932334
331.6000,0.094118
331.4000,0.0937279
331.2000,0.0928483
331.0000,0.0934856
330.8000,0.0945196
330.6000,0.0946366
330.4000,0.0948505
330.2000,0.0946513
330.0000,0.0950787
329.8000,0.0953126
329.6000,0.0943647
329.4000,0.0951744
329.2000,0.0954544
329.0000,0.095382
328.8000,0.0959157
328.6000,0.0958138
328.4000,0.0964376
328.2000,0.0966641
328.0000,0.0966857
327.8000,0.0966393
327.6000,0.0964928
327.4000,0.0961825
327.2000,0.0967094
327.0000,0.0985458
326.8000,0.0988722
326.6000,0.0981159
326.4000,0.0978771
326.2000,0.0985415
326.0000,0.0986143
325.8000,0.0989556
325.6000,0.0991766
325.4000,0.0985648
325.2000,0.0996612
325.0000,0.100337
324.8000,0.100219
324.6000,0.100848
324.4000,0.100325
324.2000,0.0996665
324.0000,0.100046
323.8000,0.10056
323.6000,0.100459
323.4000,0.100196
323.2000,0.100603
323.0000,0.101239
322.8000,0.102499
322.6000,0.103197
322.4000,0.103185
322.2000,0.102386
322.0000,0.10213
321.8000,0.102733
321.6000,0.102349
321.4000,0.102217
321.2000,0.102648
321.0000,0.103638
320.8000,0.103949
320.6000,0.104475
320.4000,0.104406
320.2000,0.104107
320.0000,0.103241
319.8000,0.103811
319.6000,0.105203
319.4000,0.105649
319.2000,0.105467
319.0000,0.103974
318.8000,0.104113
318.6000,0.105408
318.4000,0.10712
318.2000,0.106012
318.0000,0.104689
317.8000,0.10632
317.6000,0.106792
317.4000,0.106249
317.2000,0.105896
317.0000,0.105771
316.8000,0.107154
316.6000,0.107641
316.4000,0.105816
316.2000,0.106907
316.0000,0.109046
315.8000,0.108931
315.6000,0.109436
315.4000,0.110135
315.2000,0.11054
315.0000,0.108858
314.8000,0.109241
314.6000,0.11044
314.4000,0.109539
314.2000,0.110548
314.0000,0.110415
313.8000,0.111154
313.6000,0.111101
313.4000,0.109852
313.2000,0.110004
313.0000,0.111414
312.8000,0.112075
312.6000,0.111962
312.4000,0.112905
312.2000,0.112403
312.0000,0.111599
311.8000,0.112074
311.6000,0.11229
311.4000,0.112088
311.2000,0.112924
311.0000,0.112936
310.8000,0.112181
310.6000,0.112874
310.4000,0.113158
310.2000,0.113525
310.0000,0.114532
309.8000,0.114372
309.6000,0.11408
309.4000,0.114953
309.2000,0.114739
309.0000,0.114408
308.8000,0.116285
308.6000,0.11545
308.4000,0.115527
308.2000,0.116288
308.0000,0.11542
307.8000,0.116028
307.6000,0.11544
307.4000,0.11458
307.2000,0.114567
307.0000,0.115589
306.8000,0.117455
306.6000,0.116901
306.4000,0.117166
306.2000,0.117683
306.0000,0.117078
305.8000,0.117652
305.6000,0.117236
305.4000,0.11776
305.2000,0.119401
305.0000,0.120117
304.8000,0.12013
304.6000,0.120054
304.4000,0.120395
304.2000,0.119971
304.0000,0.120088
303.8000,0.120621
303.6000,0.121832
303.4000,0.121306
303.2000,0.118397
303.0000,0.119022
302.8000,0.121198
302.6000,0.121421
302.4000,0.122484
302.2000,0.122016
302.0000,0.119174
301.8000,0.120961
301.6000,0.121827
301.4000,0.120772
301.2000,0.121827
301.0000,0.121457
300.8000,0.121414
300.6000,0.120975
300.4000,0.121789
300.2000,0.12364
300.0000,0.123263
299.8000,0.123371
299.6000,0.12442
299.4000,0.124146
299.2000,0.122517
299.0000,0.122219
298.8000,0.122937
298.6000,0.124434
298.4000,0.12423
298.2000,0.123644
298.0000,0.124066
297.8000,0.124222
297.6000,0.125401
297.4000,0.12672
297.2000,0.127349
297.0000,0.126679
296.8000,0.125238
296.6000,0.126103
296.4000,0.126922
296.2000,0.125753
296.0000,0.125953
295.8000,0.128007
295.6000,0.129556
295.4000,0.128618
295.2000,0.128291
295.0000,0.13003
294.8000,0.131747
294.6000,0.128839
294.4000,0.127463
294.2000,0.128293
294.0000,0.126249
293.8000,0.127089
293.6000,0.12955
293.4000,0.129482
293.2000,0.127352
293.0000,0.128148
292.8000,0.129064
292.6000,0.129248
292.4000,0.129487
292.2000,0.128281
292.0000,0.129387
291.8000,0.128643
291.6000,0.127083
291.4000,0.127467
291.2000,0.128688
291.0000,0.129772
290.8000,0.127469
290.6000,0.129102
290.4000,0.133676
290.2000,0.130726
290.0000,0.129448
289.8000,0.129737
289.6000,0.12844
289.4000,0.129748
289.2000,0.13175
289.0000,0.132106
288.8000,0.129394
288.6000,0.128742
288.4000,0.130732
288.2000,0.131498
288.0000,0.129592
287.8000,0.130735
287.6000,0.130966
287.4000,0.129504
287.2000,0.128547
287.0000,0.129106
286.8000,0.131492
286.6000,0.131655
286.4000,0.129537
286.2000,0.127446
286.0000,0.130069
285.8000,0.131096
285.6000,0.12785
285.4000,0.126455
285.2000,0.129363
285.0000,0.131397
284.8000,0.131867
284.6000,0.13159
284.4000,0.130302
284.2000,0.131198
284.0000,0.129812
283.8000,0.127198
283.6000,0.128265
283.4000,0.128314
283.2000,0.129835
283.0000,0.130608
282.8000,0.129026
282.6000,0.130262
282.4000,0.131458
282.2000,0.132821
282.0000,0.131766
281.8000,0.13012
281.6000,0.130804
281.4000,0.131844
281.2000,0.130052
281.0000,0.130647
280.8000,0.134508
280.6000,0.13222
280.4000,0.130139
280.2000,0.128058
280.0000,0.12625
279.8000,0.12685
279.6000,0.129245
279.4000,0.128902
279.2000,0.125802
279.0000,0.131657
278.8000,0.132091
278.6000,0.125813
278.4000,0.12678
278.2000,0.127787
278.0000,0.127605
277.8000,0.126322
277.6000,0.122701
277.4000,0.123141
277.2000,0.124468
277.0000,0.124983
276.8000,0.125417
276.6000,0.124063
276.4000,0.122928
276.2000,0.121696
276.0000,0.121331
275.8000,0.122637
275.6000,0.124442
275.4000,0.12259
275.2000,0.120302
275.0000,0.115896
274.8000,0.111678
274.6000,0.11283
274.4000,0.114611
274.2000,0.115838
274.0000,0.11905
273.8000,0.120162
273.6000,0.112442
273.4000,0.112264
273.2000,0.116687
273.0000,0.114369
272.8000,0.116402
272.6000,0.118406
272.4000,0.113942
272.2000,0.109963
272.0000,0.108029
271.8000,0.108199
271.6000,0.112693
271.4000,0.112259
271.2000,0.106148
271.0000,0.106158
270.8000,0.104468
270.6000,0.104948
270.4000,0.107612
270.2000,0.109343
270.0000,0.108591
269.8000,0.105746
269.6000,0.103405
269.4000,0.0964706
269.2000,0.0951532
269.0000,0.0966179
268.8000,0.0970347
268.6000,0.0947313
268.4000,0.0899182
268.2000,0.0910814
268.0000,0.0932313
267.8000,0.0863288
267.6000,0.0832148
267.4000,0.0860639
267.2000,0.084739
267.0000,0.0882665
266.8000,0.0933033
266.6000,0.0886512
266.4000,0.0792343
266.2000,0.07874
266.0000,0.0790887
265.8000,0.0747644
265.6000,0.0722031
265.4000,0.0702257
265.2000,0.0731538
265.0000,0.0767461
264.8000,0.0809066
264.6000,0.0805046
264.4000,0.0711813
264.2000,0.0657134
264.0000,0.0698992
263.8000,0.0700825
263.6000,0.0718902
263.4000,0.0686709
263.2000,0.0617061
263.0000,0.0658403
262.8000,0.0668441
262.6000,0.0675127
262.4000,0.0643999
262.2000,0.0607487
262.0000,0.0571928
261.8000,0.0523277
261.6000,0.0608265
261.4000,0.0584152
261.2000,0.0551924
261.0000,0.0552014
260.8000,0.0510083
260.6000,0.0557064
260.4000,0.0476423
260.2000,0.0437397
260.0000,0.0517298
259.8000,0.0547794
259.6000,0.0521591
259.4000,0.0438111
259.2000,0.0373915
259.0000,0.0392258
258.8000,0.0439373
258.6000,0.0469692
258.4000,0.0430126
258.2000,0.04094
258.0000,0.0485602
257.8000,0.0435715
257.6000,0.0338297
257.4000,0.0319026
257.2000,0.0332473
257.0000,0.0416356
256.8000,0.0426491
256.6000,0.0375651
256.4000,0.0324683
256.2000,0.0292649
256.0000,0.0299429
255.8000,0.0279151
255.6000,0.0290946
255.4000,0.0354978
255.2000,0.033415
255.0000,0.0297401
254.8000,0.0297604
254.6000,0.0328102
254.4000,0.0337831
254.2000,0.0292093
254.0000,0.0243549
253.8000,0.0273312
253.6000,0.044027
253.4000,0.0388747
253.2000,0.0237827
253.0000,0.026662
252.8000,0.0315004
252.6000,0.0320432
252.4000,0.0306502
252.2000,0.0324714
252.0000,0.0348611
251.8000,0.030223
251.6000,0.027631
251.4000,0.0259508
251.2000,0.0288387
251.0000,0.0345867
250.8000,0.0362417
250.6000,0.0276932
250.4000,0.0252824
250.2000,0.0300966
250.0000,0.0275939
249.8000,0.0201491
249.6000,0.0188959
249.4000,0.037855
249.2000,0.0397846
249.0000,0.0340376
248.8000,0.0344173
248.6000,0.0337243
248.4000,0.0312718
248.2000,0.0281185
248.0000,0.0261439
247.8000,0.0212958
247.6000,0.026258
247.4000,0.0308905
247.2000,0.0322181
247.0000,0.0343173
246.8000,0.032071
246.6000,0.0332696
246.4000,0.0352001
246.2000,0.0301884
246.0000,0.0304161
245.8000,0.0328532
245.6000,0.0320653
245.4000,0.0264554
245.2000,0.0293643
245.0000,0.0373748
244.8000,0.0333866
244.6000,0.0286992
244.4000,0.0293656
244.2000,0.0338151
244.0000,0.0263917
243.8000,0.0234586
243.6000,0.0286815
243.4000,0.0265496
243.2000,0.0256562
243.0000,0.0269579
242.8000,0.0320728
242.6000,0.0319423
242.4000,0.028497
242.2000,0.0310086
242.0000,0.0262784
241.8000,0.027554
241.6000,0.0316835
241.4000,0.029681
241.2000,0.0307053
241.0000,0.029889
240.8000,0.0243583
240.6000,0.0247325
240.4000,0.0284618
240.2000,0.0234383
240.0000,0.0242613
239.8000,0.0284359
239.6000,0.0229395
239.4000,0.02154
239.2000,0.0230529
239.0000,0.0241285
238.8000,0.0281725
238.6000,0.0291268
238.4000,0.0288941
238.2000,0.0253428
238.0000,0.0261252
237.8000,0.0303823
237.6000,0.0320525
237.4000,0.0287383
237.2000,0.0285671
237.0000,0.0267166
236.8000,0.0274274
236.6000,0.0314143
236.4000,0.022881
236.2000,0.0223563
236.0000,0.029549
235.8000,0.0314665
235.6000,0.0241912
235.4000,0.0244984
235.2000,0.0259097
235.0000,0.0236821
234.8000,0.0300743
234.6000,0.0305499
234.4000,0.0213672
234.2000,0.0235979
234.0000,0.0316341
233.8000,0.0262591
233.6000,0.020217
233.4000,0.022956
233.2000,0.0262515
233.0000,0.0225553
232.8000,0.0271429
232.6000,0.0358389
232.4000,0.0332725
232.2000,0.0290664
232.0000,0.0246761
231.8000,0.0248066
231.6000,0.024465
231.4000,0.0258164
231.2000,0.0266328
231.0000,0.0270512
230.8000,0.0348529
230.6000,0.0366917
230.4000,0.0370186
230.2000,0.0336303
230.0000,0.0298771
229.8000,0.0283663
229.6000,0.0242765
229.4000,0.0280364
229.2000,0.0357308
229.0000,0.0293928
228.8000,0.0266593
228.6000,0.0288749
228.4000,0.0274257
228.2000,0.0298892
228.0000,0.0328947
227.8000,0.0331568
227.6000,0.033578
227.4000,0.0314158
227.2000,0.0279323
227.0000,0.0291963
226.8000,0.0259725
226.6000,0.0269583
226.4000,0.0292288
226.2000,0.0310639
226.0000,0.0336523
225.8000,0.032285
225.6000,0.0329487
225.4000,0.0325433
225.2000,0.0316914
225.0000,0.0336572
224.8000,0.0307819
224.6000,0.025967
224.4000,0.0288826
224.2000,0.022863
224.0000,0.0187321
223.8000,0.029325
223.6000,0.0334949
223.4000,0.0257821
223.2000,0.0232463
223.0000,0.0152606
222.8000,0.0151387
222.6000,0.027702
222.4000,0.0359803
222.2000,0.0346286
222.0000,0.0284255
221.8000,0.027909
221.6000,0.0293859
221.4000,0.0245651
221.2000,0.0226263
221.0000,0.0286035
220.8000,0.0262485
220.6000,0.0252432
220.4000,0.020689
220.2000,0.0164666
220.0000,0.0232111
219.8000,0.0263145
219.6000,0.0246361
219.4000,0.0317866
219.2000,0.0340479
219.0000,0.0240879
218.8000,0.0236844
218.6000,0.0232038
218.4000,0.0211741
218.2000,0.0254007
218.0000,0.0282544
217.8000,0.0247413
217.6000,0.02397
217.4000,0.0305977
217.2000,0.0321911
217.0000,0.0332506
216.8000,0.0308727
216.6000,0.0306776
216.4000,0.0237157
216.2000,0.0159917
216.0000,0.0239368
215.8000,0.029028
215.6000,0.0302593
215.4000,0.0278472
215.2000,0.0280506
215.0000,0.0233878
214.8000,0.0177941
214.6000,0.0191157
214.4000,0.0157033
214.2000,0.0197799
214.0000,0.023397
213.8000,0.0263663
213.6000,0.0319247
213.4000,0.0292427
213.2000,0.028143
213.0000,0.0276878
212.8000,0.0200967
212.6000,0.0227414
212.4000,0.0324278
212.2000,0.0301652
212.0000,0.0233486
211.8000,0.0228827
211.6000,0.0227118
211.4000,0.0226676
211.2000,0.0161897
211.0000,0.0187602
210.8000,0.0295215
210.6000,0.0305352
210.4000,0.0274062
210.2000,0.0204586
210.0000,0.0265124
209.8000,0.0304278
209.6000,0.023565
209.4000,0.0223497
209.2000,0.0236943
209.0000,0.0179891
208.8000,0.0204084
208.6000,0.0338925
208.4000,0.0310669
208.2000,0.0222805
208.0000,0.0226701
207.8000,0.0250678
207.6000,0.0257649
207.4000,0.0265955
207.2000,0.0316539
207.0000,0.0299106
206.8000,0.0255226
206.6000,0.0274434
206.4000,0.0364319
206.2000,0.0343189
206.0000,0.0259612
205.8000,0.0204713
205.6000,0.0204273
205.4000,0.0251114
205.2000,0.0281773
205.0000,0.0331607
204.8000,0.0298086
204.6000,0.0278718
204.4000,0.0238431
204.2000,0.0269755
204.0000,0.030824
203.8000,0.0210546
203.6000,0.0238584
203.4000,0.030118
203.2000,0.0245963
203.0000,0.0171406
202.8000,0.0174031
202.6000,0.026774
202.4000,0.0283533
202.2000,0.0234534
202.0000,0.0228981
201.8000,0.0218017
201.6000,0.0288242
201.4000,0.0368
201.2000,0.0388117
201.0000,0.0390188
200.8000,0.0336307
200.6000,0.0303721
200.4000,0.0244669
200.2000,0.0184244
200.0000,0.0219597

##### Extended Information
[Comments]
Sample name
Comment
Username
Division
Organization,IIT Gandhinagar

[Detailed Information]
Creation date,18-10-2022 18:41

Data array type,Linear data array
Horizontal axis,Wavelength [nm]
Vertical axis,Abs
Start,900 nm
End,200 nm
Data interval,0.2 nm
Data points,3501    

[Measurement Information]
Instrument name,UV-Vis Spectrometer
Model name,V-750
Serial No.,A009361799

Accessory,USE-753
Accessory S/N,A009361799
  Cell,
  Ref. beam,

Measurement date,18-10-2022 18:40

Photometric mode,Abs
Measurement range,900 - 200 nm
Data interval,0.2 nm
Bandwidth,1.0 nm
Response,0.06 sec
Scan mode,Continuous
Scan speed,400 nm/min
Change source at,340 nm
Light source,D2/WI
Filter exchange,Step
Correction,Baseline
No. of cycles,1

