TITLE,
DATA TYPE,ULTRAVIOLET SPECTRUM
ORIGIN,JASCO
OWNER,
DATE,22/10/18
TIME,18:47:16
SPECTROMETER/DATA SYSTEM,
LOCALE,16393
RESOLUTION,
DELTAX,-0.2
XUNITS,NANOMETERS
YUNITS,ABSORBANCE
FIRSTX,  900.0000
LASTX,  200.0000
NPOINTS,    3501
FIRSTY,     0.41798
MAXY,     0.75010
MINY,     0.41378
XYDATA
900.0000,0.417979
899.8000,0.415316
899.6000,0.413776
899.4000,0.416478
899.2000,0.416764
899.0000,0.416921
898.8000,0.416654
898.6000,0.41562
898.4000,0.420103
898.2000,0.422251
898.0000,0.421565
897.8000,0.416731
897.6000,0.415426
897.4000,0.420968
897.2000,0.419595
897.0000,0.418017
896.8000,0.4209
896.6000,0.421371
896.4000,0.418543
896.2000,0.416328
896.0000,0.41604
895.8000,0.415557
895.6000,0.416746
895.4000,0.416171
895.2000,0.415167
895.0000,0.41838
894.8000,0.41684
894.6000,0.416658
894.4000,0.419482
894.2000,0.421394
894.0000,0.421133
893.8000,0.421189
893.6000,0.420457
893.4000,0.419922
893.2000,0.422418
893.0000,0.422542
892.8000,0.421615
892.6000,0.419916
892.4000,0.419906
892.2000,0.421751
892.0000,0.424744
891.8000,0.422198
891.6000,0.420164
891.4000,0.422198
891.2000,0.420803
891.0000,0.421036
890.8000,0.423164
890.6000,0.425029
890.4000,0.423729
890.2000,0.421315
890.0000,0.422391
889.8000,0.423839
889.6000,0.427581
889.4000,0.428819
889.2000,0.424259
889.0000,0.425258
888.8000,0.426352
888.6000,0.423475
888.4000,0.421819
888.2000,0.421308
888.0000,0.423595
887.8000,0.422521
887.6000,0.422077
887.4000,0.426145
887.2000,0.4265
887.0000,0.424973
886.8000,0.427347
886.6000,0.427866
886.4000,0.42273
886.2000,0.422042
886.0000,0.425123
885.8000,0.425817
885.6000,0.427645
885.4000,0.427344
885.2000,0.425234
885.0000,0.426041
884.8000,0.4264
884.6000,0.427764
884.4000,0.426356
884.2000,0.425486
884.0000,0.427383
883.8000,0.428504
883.6000,0.42932
883.4000,0.429209
883.2000,0.428559
883.0000,0.427982
882.8000,0.428139
882.6000,0.427265
882.4000,0.426976
882.2000,0.427418
882.0000,0.428861
881.8000,0.42874
881.6000,0.426779
881.4000,0.427434
881.2000,0.428646
881.0000,0.428051
880.8000,0.428185
880.6000,0.429523
880.4000,0.429466
880.2000,0.429591
880.0000,0.430585
879.8000,0.428876
879.6000,0.428266
879.4000,0.430206
879.2000,0.431033
879.0000,0.430914
878.8000,0.430307
878.6000,0.430807
878.4000,0.430461
878.2000,0.429913
878.0000,0.430433
877.8000,0.429916
877.6000,0.430783
877.4000,0.430818
877.2000,0.43096
877.0000,0.432378
876.8000,0.432714
876.6000,0.432795
876.4000,0.433103
876.2000,0.432302
876.0000,0.430518
875.8000,0.431533
875.6000,0.432359
875.4000,0.432184
875.2000,0.432062
875.0000,0.43154
874.8000,0.432815
874.6000,0.433593
874.4000,0.43326
874.2000,0.432969
874.0000,0.432037
873.8000,0.4312
873.6000,0.432393
873.4000,0.434232
873.2000,0.435763
873.0000,0.435088
872.8000,0.433987
872.6000,0.434827
872.4000,0.435079
872.2000,0.434695
872.0000,0.433793
871.8000,0.433491
871.6000,0.434004
871.4000,0.433713
871.2000,0.434328
871.0000,0.435598
870.8000,0.436014
870.6000,0.434884
870.4000,0.435009
870.2000,0.436882
870.0000,0.43578
869.8000,0.436168
869.6000,0.436466
869.4000,0.435504
869.2000,0.435776
869.0000,0.435439
868.8000,0.437178
868.6000,0.438343
868.4000,0.43737
868.2000,0.436468
868.0000,0.43678
867.8000,0.438097
867.6000,0.436747
867.4000,0.436272
867.2000,0.438428
867.0000,0.438761
866.8000,0.437781
866.6000,0.437606
866.4000,0.437307
866.2000,0.437298
866.0000,0.438581
865.8000,0.438721
865.6000,0.438214
865.4000,0.438487
865.2000,0.439114
865.0000,0.438876
864.8000,0.438706
864.6000,0.439456
864.4000,0.439288
864.2000,0.439072
864.0000,0.43814
863.8000,0.438684
863.6000,0.439573
863.4000,0.4403
863.2000,0.441014
863.0000,0.440116
862.8000,0.440452
862.6000,0.440078
862.4000,0.439303
862.2000,0.440031
862.0000,0.440303
861.8000,0.440085
861.6000,0.440493
861.4000,0.44073
861.2000,0.441158
861.0000,0.441483
860.8000,0.441027
860.6000,0.441329
860.4000,0.441961
860.2000,0.441943
860.0000,0.441698
859.8000,0.441886
859.6000,0.442091
859.4000,0.441748
859.2000,0.441788
859.0000,0.442227
858.8000,0.442874
858.6000,0.442976
858.4000,0.442594
858.2000,0.443202
858.0000,0.442863
857.8000,0.441825
857.6000,0.442054
857.4000,0.44312
857.2000,0.443755
857.0000,0.443322
856.8000,0.443113
856.6000,0.443736
856.4000,0.444121
856.2000,0.44369
856.0000,0.44416
855.8000,0.445198
855.6000,0.444946
855.4000,0.444622
855.2000,0.44513
855.0000,0.444872
854.8000,0.444471
854.6000,0.445485
854.4000,0.446013
854.2000,0.444829
854.0000,0.44467
853.8000,0.445385
853.6000,0.445292
853.4000,0.445732
853.2000,0.44612
853.0000,0.445902
852.8000,0.446345
852.6000,0.44688
852.4000,0.446115
852.2000,0.445928
852.0000,0.446622
851.8000,0.446696
851.6000,0.446413
851.4000,0.446296
851.2000,0.446535
851.0000,0.447209
850.8000,0.447047
850.6000,0.446834
850.4000,0.447621
850.2000,0.447575
850.0000,0.447221
849.8000,0.447042
849.6000,0.447642
849.4000,0.447801
849.2000,0.4479
849.0000,0.448286
848.8000,0.447967
848.6000,0.44771
848.4000,0.448023
848.2000,0.44814
848.0000,0.448365
847.8000,0.448648
847.6000,0.448234
847.4000,0.448263
847.2000,0.448409
847.0000,0.448668
846.8000,0.448976
846.6000,0.449366
846.4000,0.450081
846.2000,0.449658
846.0000,0.449257
845.8000,0.449602
845.6000,0.449408
845.4000,0.449437
845.2000,0.44919
845.0000,0.449154
844.8000,0.449618
844.6000,0.449187
844.4000,0.44938
844.2000,0.45023
844.0000,0.44954
843.8000,0.449577
843.6000,0.450543
843.4000,0.450488
843.2000,0.45012
843.0000,0.450144
842.8000,0.450369
842.6000,0.450426
842.4000,0.450495
842.2000,0.450931
842.0000,0.451322
841.8000,0.451352
841.6000,0.451228
841.4000,0.450902
841.2000,0.450656
841.0000,0.450862
840.8000,0.451232
840.6000,0.451354
840.4000,0.451578
840.2000,0.451805
840.0000,0.451961
839.8000,0.452009
839.6000,0.451901
839.4000,0.451824
839.2000,0.451727
839.0000,0.451586
838.8000,0.451567
838.6000,0.451846
838.4000,0.45193
838.2000,0.452188
838.0000,0.452378
837.8000,0.452304
837.6000,0.451964
837.4000,0.452157
837.2000,0.452438
837.0000,0.45236
836.8000,0.452493
836.6000,0.452589
836.4000,0.452596
836.2000,0.452494
836.0000,0.452543
835.8000,0.452573
835.6000,0.452951
835.4000,0.452952
835.2000,0.452767
835.0000,0.453009
834.8000,0.453392
834.6000,0.453135
834.4000,0.452943
834.2000,0.452955
834.0000,0.453027
833.8000,0.453211
833.6000,0.453348
833.4000,0.453836
833.2000,0.453709
833.0000,0.453763
832.8000,0.453923
832.6000,0.453744
832.4000,0.453536
832.2000,0.453609
832.0000,0.453828
831.8000,0.453847
831.6000,0.453837
831.4000,0.45398
831.2000,0.453807
831.0000,0.453547
830.8000,0.453685
830.6000,0.453755
830.4000,0.453695
830.2000,0.453826
830.0000,0.454307
829.8000,0.454359
829.6000,0.454213
829.4000,0.454144
829.2000,0.454382
829.0000,0.454623
828.8000,0.453946
828.6000,0.453848
828.4000,0.454276
828.2000,0.454394
828.0000,0.454464
827.8000,0.454308
827.6000,0.454573
827.4000,0.45479
827.2000,0.454482
827.0000,0.454624
826.8000,0.454616
826.6000,0.454608
826.4000,0.455193
826.2000,0.455026
826.0000,0.45484
825.8000,0.454739
825.6000,0.454545
825.4000,0.454558
825.2000,0.45502
825.0000,0.455156
824.8000,0.455042
824.6000,0.455144
824.4000,0.455022
824.2000,0.454944
824.0000,0.454916
823.8000,0.454852
823.6000,0.454479
823.4000,0.45463
823.2000,0.455097
823.0000,0.455107
822.8000,0.454684
822.6000,0.454885
822.4000,0.45542
822.2000,0.455582
822.0000,0.455419
821.8000,0.454861
821.6000,0.454746
821.4000,0.455077
821.2000,0.455173
821.0000,0.455159
820.8000,0.455289
820.6000,0.455032
820.4000,0.455094
820.2000,0.455053
820.0000,0.45513
819.8000,0.455599
819.6000,0.455249
819.4000,0.454587
819.2000,0.454932
819.0000,0.455763
818.8000,0.455899
818.6000,0.455428
818.4000,0.455253
818.2000,0.455298
818.0000,0.455136
817.8000,0.455167
817.6000,0.455281
817.4000,0.455631
817.2000,0.455561
817.0000,0.455802
816.8000,0.455856
816.6000,0.455566
816.4000,0.455858
816.2000,0.455778
816.0000,0.455697
815.8000,0.455732
815.6000,0.455771
815.4000,0.455864
815.2000,0.455627
815.0000,0.456061
814.8000,0.4566
814.6000,0.456241
814.4000,0.455802
814.2000,0.455713
814.0000,0.455716
813.8000,0.455643
813.6000,0.45607
813.4000,0.456154
813.2000,0.455688
813.0000,0.455658
812.8000,0.455609
812.6000,0.455775
812.4000,0.456484
812.2000,0.456584
812.0000,0.456001
811.8000,0.455933
811.6000,0.456143
811.4000,0.455852
811.2000,0.455982
811.0000,0.456085
810.8000,0.455805
810.6000,0.45603
810.4000,0.456506
810.2000,0.456406
810.0000,0.456265
809.8000,0.456233
809.6000,0.456294
809.4000,0.45659
809.2000,0.456101
809.0000,0.456155
808.8000,0.45643
808.6000,0.456546
808.4000,0.45674
808.2000,0.456215
808.0000,0.455963
807.8000,0.456317
807.6000,0.456343
807.4000,0.456173
807.2000,0.456249
807.0000,0.456806
806.8000,0.456667
806.6000,0.456242
806.4000,0.456501
806.2000,0.4566
806.0000,0.456838
805.8000,0.457037
805.6000,0.456713
805.4000,0.456789
805.2000,0.457012
805.0000,0.457043
804.8000,0.457092
804.6000,0.4567
804.4000,0.456425
804.2000,0.456755
804.0000,0.457148
803.8000,0.456968
803.6000,0.456759
803.4000,0.456667
803.2000,0.456561
803.0000,0.456768
802.8000,0.456883
802.6000,0.457119
802.4000,0.4573
802.2000,0.457161
802.0000,0.457248
801.8000,0.457087
801.6000,0.456985
801.4000,0.456989
801.2000,0.456924
801.0000,0.457048
800.8000,0.457339
800.6000,0.457373
800.4000,0.457081
800.2000,0.456766
800.0000,0.456862
799.8000,0.456952
799.6000,0.457001
799.4000,0.45733
799.2000,0.457162
799.0000,0.45681
798.8000,0.456858
798.6000,0.45728
798.4000,0.457453
798.2000,0.457209
798.0000,0.457232
797.8000,0.457396
797.6000,0.457594
797.4000,0.457751
797.2000,0.45742
797.0000,0.457252
796.8000,0.457443
796.6000,0.457479
796.4000,0.457239
796.2000,0.457225
796.0000,0.457486
795.8000,0.457489
795.6000,0.457534
795.4000,0.457331
795.2000,0.457439
795.0000,0.457683
794.8000,0.457275
794.6000,0.457229
794.4000,0.457249
794.2000,0.457431
794.0000,0.457697
793.8000,0.457651
793.6000,0.457421
793.4000,0.457507
793.2000,0.457897
793.0000,0.457511
792.8000,0.457357
792.6000,0.457742
792.4000,0.457512
792.2000,0.457258
792.0000,0.457519
791.8000,0.457471
791.6000,0.457245
791.4000,0.457571
791.2000,0.457928
791.0000,0.457758
790.8000,0.457551
790.6000,0.457565
790.4000,0.457509
790.2000,0.457754
790.0000,0.457806
789.8000,0.457751
789.6000,0.458032
789.4000,0.457875
789.2000,0.457891
789.0000,0.458199
788.8000,0.457966
788.6000,0.457717
788.4000,0.457911
788.2000,0.458115
788.0000,0.458052
787.8000,0.45801
787.6000,0.458158
787.4000,0.458262
787.2000,0.458165
787.0000,0.457936
786.8000,0.457912
786.6000,0.457846
786.4000,0.458127
786.2000,0.45822
786.0000,0.458092
785.8000,0.458215
785.6000,0.458056
785.4000,0.458309
785.2000,0.458398
785.0000,0.458217
784.8000,0.458235
784.6000,0.457838
784.4000,0.45798
784.2000,0.458548
784.0000,0.458262
783.8000,0.458329
783.6000,0.458834
783.4000,0.458757
783.2000,0.458557
783.0000,0.458461
782.8000,0.458086
782.6000,0.457678
782.4000,0.458042
782.2000,0.458209
782.0000,0.458045
781.8000,0.458344
781.6000,0.458427
781.4000,0.458351
781.2000,0.458537
781.0000,0.458881
780.8000,0.458921
780.6000,0.458511
780.4000,0.458457
780.2000,0.458842
780.0000,0.458926
779.8000,0.458496
779.6000,0.458367
779.4000,0.458567
779.2000,0.458696
779.0000,0.45885
778.8000,0.459016
778.6000,0.458845
778.4000,0.458758
778.2000,0.458809
778.0000,0.458617
777.8000,0.458839
777.6000,0.458846
777.4000,0.458839
777.2000,0.458751
777.0000,0.458649
776.8000,0.459014
776.6000,0.459015
776.4000,0.459031
776.2000,0.459023
776.0000,0.458738
775.8000,0.458768
775.6000,0.458851
775.4000,0.458774
775.2000,0.458778
775.0000,0.458751
774.8000,0.458645
774.6000,0.458911
774.4000,0.458895
774.2000,0.458797
774.0000,0.458988
773.8000,0.459017
773.6000,0.458852
773.4000,0.458656
773.2000,0.458906
773.0000,0.45905
772.8000,0.459026
772.6000,0.459229
772.4000,0.459355
772.2000,0.459367
772.0000,0.459475
771.8000,0.45928
771.6000,0.458917
771.4000,0.458816
771.2000,0.458828
771.0000,0.459207
770.8000,0.45935
770.6000,0.45921
770.4000,0.459262
770.2000,0.459197
770.0000,0.459322
769.8000,0.459252
769.6000,0.459203
769.4000,0.45956
769.2000,0.459707
769.0000,0.45927
768.8000,0.459138
768.6000,0.459347
768.4000,0.459689
768.2000,0.459628
768.0000,0.45936
767.8000,0.459624
767.6000,0.459561
767.4000,0.459287
767.2000,0.459353
767.0000,0.459351
766.8000,0.45917
766.6000,0.459518
766.4000,0.459566
766.2000,0.459321
766.0000,0.459414
765.8000,0.459579
765.6000,0.459481
765.4000,0.459158
765.2000,0.458907
765.0000,0.458924
764.8000,0.459368
764.6000,0.459777
764.4000,0.46001
764.2000,0.459828
764.0000,0.459279
763.8000,0.459172
763.6000,0.459398
763.4000,0.459671
763.2000,0.459518
763.0000,0.459356
762.8000,0.459619
762.6000,0.459689
762.4000,0.459813
762.2000,0.459969
762.0000,0.459774
761.8000,0.459497
761.6000,0.459746
761.4000,0.460031
761.2000,0.459991
761.0000,0.459939
760.8000,0.459675
760.6000,0.45957
760.4000,0.459674
760.2000,0.459977
760.0000,0.460263
759.8000,0.459864
759.6000,0.459729
759.4000,0.460079
759.2000,0.460153
759.0000,0.460126
758.8000,0.459813
758.6000,0.459633
758.4000,0.459944
758.2000,0.46017
758.0000,0.46038
757.8000,0.460295
757.6000,0.460055
757.4000,0.460232
757.2000,0.459934
757.0000,0.459699
756.8000,0.460054
756.6000,0.460446
756.4000,0.460377
756.2000,0.459902
756.0000,0.460206
755.8000,0.460587
755.6000,0.460176
755.4000,0.459885
755.2000,0.459848
755.0000,0.45994
754.8000,0.460326
754.6000,0.46045
754.4000,0.460413
754.2000,0.460373
754.0000,0.460381
753.8000,0.46034
753.6000,0.460462
753.4000,0.460541
753.2000,0.460343
753.0000,0.460318
752.8000,0.460468
752.6000,0.460527
752.4000,0.460652
752.2000,0.460681
752.0000,0.460232
751.8000,0.46041
751.6000,0.460495
751.4000,0.460134
751.2000,0.460457
751.0000,0.460775
750.8000,0.460664
750.6000,0.460423
750.4000,0.460261
750.2000,0.46034
750.0000,0.460561
749.8000,0.460499
749.6000,0.460513
749.4000,0.460675
749.2000,0.460426
749.0000,0.460394
748.8000,0.460569
748.6000,0.460378
748.4000,0.460409
748.2000,0.460516
748.0000,0.460434
747.8000,0.460385
747.6000,0.460604
747.4000,0.460853
747.2000,0.461004
747.0000,0.461113
746.8000,0.461016
746.6000,0.460938
746.4000,0.461062
746.2000,0.460996
746.0000,0.46092
745.8000,0.460981
745.6000,0.460965
745.4000,0.460849
745.2000,0.46083
745.0000,0.460927
744.8000,0.460758
744.6000,0.46076
744.4000,0.460911
744.2000,0.460761
744.0000,0.46083
743.8000,0.461138
743.6000,0.461087
743.4000,0.461094
743.2000,0.461089
743.0000,0.461155
742.8000,0.461321
742.6000,0.461182
742.4000,0.460838
742.2000,0.460797
742.0000,0.460908
741.8000,0.460826
741.6000,0.460982
741.4000,0.460937
741.2000,0.461108
741.0000,0.461551
740.8000,0.46151
740.6000,0.461204
740.4000,0.461147
740.2000,0.461287
740.0000,0.461921
739.8000,0.461571
739.6000,0.461223
739.4000,0.461515
739.2000,0.461923
739.0000,0.461887
738.8000,0.461537
738.6000,0.461821
738.4000,0.462031
738.2000,0.461789
738.0000,0.461613
737.8000,0.461665
737.6000,0.461658
737.4000,0.461637
737.2000,0.461867
737.0000,0.461966
736.8000,0.462108
736.6000,0.462348
736.4000,0.462128
736.2000,0.461685
736.0000,0.461693
735.8000,0.46196
735.6000,0.4619
735.4000,0.462021
735.2000,0.462089
735.0000,0.462072
734.8000,0.462176
734.6000,0.462338
734.4000,0.462281
734.2000,0.462215
734.0000,0.462361
733.8000,0.462441
733.6000,0.462556
733.4000,0.462267
733.2000,0.462022
733.0000,0.462509
732.8000,0.462835
732.6000,0.46261
732.4000,0.462373
732.2000,0.462394
732.0000,0.462361
731.8000,0.462341
731.6000,0.462518
731.4000,0.462714
731.2000,0.462382
731.0000,0.461994
730.8000,0.462231
730.6000,0.4624
730.4000,0.462508
730.2000,0.462555
730.0000,0.462782
729.8000,0.462771
729.6000,0.462648
729.4000,0.462709
729.2000,0.462352
729.0000,0.462263
728.8000,0.462415
728.6000,0.462602
728.4000,0.462765
728.2000,0.462714
728.0000,0.462626
727.8000,0.462958
727.6000,0.463249
727.4000,0.462834
727.2000,0.462658
727.0000,0.462909
726.8000,0.462924
726.6000,0.462797
726.4000,0.462687
726.2000,0.462951
726.0000,0.463095
725.8000,0.462748
725.6000,0.46286
725.4000,0.463048
725.2000,0.462715
725.0000,0.462719
724.8000,0.463171
724.6000,0.463312
724.4000,0.463271
724.2000,0.462947
724.0000,0.462797
723.8000,0.462963
723.6000,0.463123
723.4000,0.462902
723.2000,0.46284
723.0000,0.463132
722.8000,0.46345
722.6000,0.463579
722.4000,0.463492
722.2000,0.463378
722.0000,0.463368
721.8000,0.463494
721.6000,0.463223
721.4000,0.463083
721.2000,0.463222
721.0000,0.463433
720.8000,0.463576
720.6000,0.463365
720.4000,0.46326
720.2000,0.463391
720.0000,0.463324
719.8000,0.463372
719.6000,0.463736
719.4000,0.463797
719.2000,0.46355
719.0000,0.463634
718.8000,0.463584
718.6000,0.463628
718.4000,0.463774
718.2000,0.463578
718.0000,0.463583
717.8000,0.463479
717.6000,0.463389
717.4000,0.463663
717.2000,0.463824
717.0000,0.463701
716.8000,0.4638
716.6000,0.463684
716.4000,0.463645
716.2000,0.463681
716.0000,0.463701
715.8000,0.463777
715.6000,0.463455
715.4000,0.463567
715.2000,0.463735
715.0000,0.463824
714.8000,0.463802
714.6000,0.463718
714.4000,0.463892
714.2000,0.463754
714.0000,0.46388
713.8000,0.46422
713.6000,0.464174
713.4000,0.464244
713.2000,0.464376
713.0000,0.464101
712.8000,0.464018
712.6000,0.464163
712.4000,0.464011
712.2000,0.463968
712.0000,0.463965
711.8000,0.463921
711.6000,0.464015
711.4000,0.464345
711.2000,0.464513
711.0000,0.464227
710.8000,0.464012
710.6000,0.464219
710.4000,0.464404
710.2000,0.464381
710.0000,0.464418
709.8000,0.4645
709.6000,0.464475
709.4000,0.464468
709.2000,0.464607
709.0000,0.464782
708.8000,0.464444
708.6000,0.464477
708.4000,0.464737
708.2000,0.46457
708.0000,0.464541
707.8000,0.464564
707.6000,0.464732
707.4000,0.464492
707.2000,0.464491
707.0000,0.464836
706.8000,0.464607
706.6000,0.464474
706.4000,0.46465
706.2000,0.464842
706.0000,0.464747
705.8000,0.464579
705.6000,0.464813
705.4000,0.465076
705.2000,0.464942
705.0000,0.4647
704.8000,0.46481
704.6000,0.464927
704.4000,0.464909
704.2000,0.465126
704.0000,0.465069
703.8000,0.465054
703.6000,0.465211
703.4000,0.46509
703.2000,0.465032
703.0000,0.465152
702.8000,0.46522
702.6000,0.465036
702.4000,0.465001
702.2000,0.465113
702.0000,0.465331
701.8000,0.465221
701.6000,0.465206
701.4000,0.46557
701.2000,0.465459
701.0000,0.465469
700.8000,0.465745
700.6000,0.465657
700.4000,0.465557
700.2000,0.4656
700.0000,0.465711
699.8000,0.465551
699.6000,0.465432
699.4000,0.465589
699.2000,0.465427
699.0000,0.465226
698.8000,0.465593
698.6000,0.466024
698.4000,0.46577
698.2000,0.465636
698.0000,0.466036
697.8000,0.46604
697.6000,0.465773
697.4000,0.465756
697.2000,0.465838
697.0000,0.465836
696.8000,0.465737
696.6000,0.465872
696.4000,0.465972
696.2000,0.465979
696.0000,0.466012
695.8000,0.465987
695.6000,0.465952
695.4000,0.465963
695.2000,0.46596
695.0000,0.466079
694.8000,0.466331
694.6000,0.466127
694.4000,0.466202
694.2000,0.466286
694.0000,0.466119
693.8000,0.466175
693.6000,0.466036
693.4000,0.466024
693.2000,0.466075
693.0000,0.466289
692.8000,0.466271
692.6000,0.466321
692.4000,0.466494
692.2000,0.466468
692.0000,0.466546
691.8000,0.46676
691.6000,0.466715
691.4000,0.466611
691.2000,0.466531
691.0000,0.466484
690.8000,0.466638
690.6000,0.466697
690.4000,0.466692
690.2000,0.466496
690.0000,0.466577
689.8000,0.466581
689.6000,0.466461
689.4000,0.466569
689.2000,0.46669
689.0000,0.466766
688.8000,0.466584
688.6000,0.466725
688.4000,0.466663
688.2000,0.466416
688.0000,0.466441
687.8000,0.466536
687.6000,0.466776
687.4000,0.46681
687.2000,0.466812
687.0000,0.466715
686.8000,0.46665
686.6000,0.466533
686.4000,0.466533
686.2000,0.466662
686.0000,0.466631
685.8000,0.466527
685.6000,0.466615
685.4000,0.466655
685.2000,0.466537
685.0000,0.466694
684.8000,0.466595
684.6000,0.466482
684.4000,0.466656
684.2000,0.466412
684.0000,0.46613
683.8000,0.466604
683.6000,0.466731
683.4000,0.466396
683.2000,0.46643
683.0000,0.466648
682.8000,0.466736
682.6000,0.466526
682.4000,0.466353
682.2000,0.466311
682.0000,0.466425
681.8000,0.466732
681.6000,0.466773
681.4000,0.466428
681.2000,0.466424
681.0000,0.466546
680.8000,0.466431
680.6000,0.466302
680.4000,0.466451
680.2000,0.466548
680.0000,0.466536
679.8000,0.46661
679.6000,0.466682
679.4000,0.466472
679.2000,0.466407
679.0000,0.466296
678.8000,0.466195
678.6000,0.466396
678.4000,0.46656
678.2000,0.466581
678.0000,0.466688
677.8000,0.466882
677.6000,0.466872
677.4000,0.466908
677.2000,0.467091
677.0000,0.466978
676.8000,0.466709
676.6000,0.466757
676.4000,0.466926
676.2000,0.467041
676.0000,0.467157
675.8000,0.467257
675.6000,0.467053
675.4000,0.466856
675.2000,0.467098
675.0000,0.467332
674.8000,0.466981
674.6000,0.466817
674.4000,0.467091
674.2000,0.467237
674.0000,0.467315
673.8000,0.467301
673.6000,0.467227
673.4000,0.467316
673.2000,0.467281
673.0000,0.467543
672.8000,0.467644
672.6000,0.467377
672.4000,0.467334
672.2000,0.466989
672.0000,0.467107
671.8000,0.467436
671.6000,0.467161
671.4000,0.467228
671.2000,0.467424
671.0000,0.467411
670.8000,0.467442
670.6000,0.467219
670.4000,0.467187
670.2000,0.467603
670.0000,0.467809
669.8000,0.467636
669.6000,0.467495
669.4000,0.467802
669.2000,0.467819
669.0000,0.46765
668.8000,0.467867
668.6000,0.467856
668.4000,0.467598
668.2000,0.467707
668.0000,0.468018
667.8000,0.46779
667.6000,0.467764
667.4000,0.467991
667.2000,0.467783
667.0000,0.467766
666.8000,0.467758
666.6000,0.467872
666.4000,0.4681
666.2000,0.468058
666.0000,0.468184
665.8000,0.467988
665.6000,0.467653
665.4000,0.467644
665.2000,0.467944
665.0000,0.468348
664.8000,0.46827
664.6000,0.46808
664.4000,0.46823
664.2000,0.468471
664.0000,0.468448
663.8000,0.468469
663.6000,0.468477
663.4000,0.468244
663.2000,0.468066
663.0000,0.468319
662.8000,0.468561
662.6000,0.46835
662.4000,0.468307
662.2000,0.468535
662.0000,0.468743
661.8000,0.468562
661.6000,0.468426
661.4000,0.468566
661.2000,0.468438
661.0000,0.468577
660.8000,0.468932
660.6000,0.468871
660.4000,0.468665
660.2000,0.468556
660.0000,0.468683
659.8000,0.46885
659.6000,0.468741
659.4000,0.46885
659.2000,0.468954
659.0000,0.468813
658.8000,0.468846
658.6000,0.468994
658.4000,0.469015
658.2000,0.468981
658.0000,0.468763
657.8000,0.468792
657.6000,0.468881
657.4000,0.468888
657.2000,0.469092
657.0000,0.468964
656.8000,0.468791
656.6000,0.469091
656.4000,0.469113
656.2000,0.468989
656.0000,0.469229
655.8000,0.46935
655.6000,0.469513
655.4000,0.46956
655.2000,0.469403
655.0000,0.469108
654.8000,0.468846
654.6000,0.469204
654.4000,0.469475
654.2000,0.469397
654.0000,0.46942
653.8000,0.469327
653.6000,0.46943
653.4000,0.46954
653.2000,0.469447
653.0000,0.469807
652.8000,0.470072
652.6000,0.469697
652.4000,0.469392
652.2000,0.469411
652.0000,0.469384
651.8000,0.469501
651.6000,0.469605
651.4000,0.469725
651.2000,0.469818
651.0000,0.469896
650.8000,0.469878
650.6000,0.469665
650.4000,0.46979
650.2000,0.469677
650.0000,0.469699
649.8000,0.469941
649.6000,0.469861
649.4000,0.469743
649.2000,0.469834
649.0000,0.469838
648.8000,0.469854
648.6000,0.470021
648.4000,0.469886
648.2000,0.469833
648.0000,0.469961
647.8000,0.470017
647.6000,0.470195
647.4000,0.470511
647.2000,0.470635
647.0000,0.470455
646.8000,0.470275
646.6000,0.470173
646.4000,0.47014
646.2000,0.470091
646.0000,0.47022
645.8000,0.470429
645.6000,0.470572
645.4000,0.470467
645.2000,0.470606
645.0000,0.470831
644.8000,0.470571
644.6000,0.470437
644.4000,0.47039
644.2000,0.470467
644.0000,0.470432
643.8000,0.470595
643.6000,0.470854
643.4000,0.470704
643.2000,0.470872
643.0000,0.470797
642.8000,0.470564
642.6000,0.470633
642.4000,0.470575
642.2000,0.470634
642.0000,0.470873
641.8000,0.471002
641.6000,0.470816
641.4000,0.470654
641.2000,0.470639
641.0000,0.470776
640.8000,0.471033
640.6000,0.470771
640.4000,0.470564
640.2000,0.470922
640.0000,0.471081
639.8000,0.47115
639.6000,0.471302
639.4000,0.471374
639.2000,0.471412
639.0000,0.471201
638.8000,0.47096
638.6000,0.471005
638.4000,0.471184
638.2000,0.471281
638.0000,0.47128
637.8000,0.4712
637.6000,0.471127
637.4000,0.471261
637.2000,0.471299
637.0000,0.471305
636.8000,0.471655
636.6000,0.471645
636.4000,0.471385
636.2000,0.471507
636.0000,0.471596
635.8000,0.471713
635.6000,0.471542
635.4000,0.471475
635.2000,0.471667
635.0000,0.471624
634.8000,0.471599
634.6000,0.471512
634.4000,0.471628
634.2000,0.471723
634.0000,0.471733
633.8000,0.471773
633.6000,0.471841
633.4000,0.47191
633.2000,0.47213
633.0000,0.472158
632.8000,0.471753
632.6000,0.471734
632.4000,0.471863
632.2000,0.472086
632.0000,0.472299
631.8000,0.472113
631.6000,0.472015
631.4000,0.472068
631.2000,0.47204
631.0000,0.472188
630.8000,0.472209
630.6000,0.472265
630.4000,0.472674
630.2000,0.472526
630.0000,0.472367
629.8000,0.472628
629.6000,0.472627
629.4000,0.47234
629.2000,0.472456
629.0000,0.472558
628.8000,0.472239
628.6000,0.47234
628.4000,0.472411
628.2000,0.472462
628.0000,0.472584
627.8000,0.472678
627.6000,0.472856
627.4000,0.473021
627.2000,0.472924
627.0000,0.472817
626.8000,0.473013
626.6000,0.472782
626.4000,0.472767
626.2000,0.472993
626.0000,0.47283
625.8000,0.472757
625.6000,0.472873
625.4000,0.4728
625.2000,0.47287
625.0000,0.473161
624.8000,0.473032
624.6000,0.472918
624.4000,0.473047
624.2000,0.473065
624.0000,0.473152
623.8000,0.473168
623.6000,0.472999
623.4000,0.472867
623.2000,0.473108
623.0000,0.473388
622.8000,0.473261
622.6000,0.473286
622.4000,0.473531
622.2000,0.473633
622.0000,0.473391
621.8000,0.473353
621.6000,0.473286
621.4000,0.473409
621.2000,0.473574
621.0000,0.473402
620.8000,0.473658
620.6000,0.473679
620.4000,0.473364
620.2000,0.473506
620.0000,0.473735
619.8000,0.474015
619.6000,0.473976
619.4000,0.47374
619.2000,0.473706
619.0000,0.473932
618.8000,0.47409
618.6000,0.473801
618.4000,0.473683
618.2000,0.474025
618.0000,0.474199
617.8000,0.474095
617.6000,0.474173
617.4000,0.474297
617.2000,0.474251
617.0000,0.474278
616.8000,0.474344
616.6000,0.474217
616.4000,0.474123
616.2000,0.474421
616.0000,0.474433
615.8000,0.474431
615.6000,0.474389
615.4000,0.474307
615.2000,0.474452
615.0000,0.47448
614.8000,0.474562
614.6000,0.474576
614.4000,0.474566
614.2000,0.474543
614.0000,0.474428
613.8000,0.474381
613.6000,0.47462
613.4000,0.474901
613.2000,0.474866
613.0000,0.474875
612.8000,0.474961
612.6000,0.475008
612.4000,0.475212
612.2000,0.47509
612.0000,0.475005
611.8000,0.475131
611.6000,0.475058
611.4000,0.475043
611.2000,0.475109
611.0000,0.475047
610.8000,0.474897
610.6000,0.475031
610.4000,0.475175
610.2000,0.475144
610.0000,0.475581
609.8000,0.47577
609.6000,0.475509
609.4000,0.475286
609.2000,0.475131
609.0000,0.475267
608.8000,0.475705
608.6000,0.475736
608.4000,0.475474
608.2000,0.475265
608.0000,0.475443
607.8000,0.475893
607.6000,0.475622
607.4000,0.475457
607.2000,0.475656
607.0000,0.475832
606.8000,0.475985
606.6000,0.47566
606.4000,0.47549
606.2000,0.475704
606.0000,0.475899
605.8000,0.476005
605.6000,0.47594
605.4000,0.475894
605.2000,0.475924
605.0000,0.476094
604.8000,0.476148
604.6000,0.47603
604.4000,0.475976
604.2000,0.476008
604.0000,0.476065
603.8000,0.476247
603.6000,0.476137
603.4000,0.476021
603.2000,0.476388
603.0000,0.476335
602.8000,0.475946
602.6000,0.47617
602.4000,0.476418
602.2000,0.476477
602.0000,0.476496
601.8000,0.476736
601.6000,0.47682
601.4000,0.476657
601.2000,0.476643
601.0000,0.47659
600.8000,0.476476
600.6000,0.476495
600.4000,0.476696
600.2000,0.476616
600.0000,0.47662
599.8000,0.476822
599.6000,0.476781
599.4000,0.476901
599.2000,0.477112
599.0000,0.47699
598.8000,0.476941
598.6000,0.477063
598.4000,0.477135
598.2000,0.477179
598.0000,0.477099
597.8000,0.477019
597.6000,0.477081
597.4000,0.47717
597.2000,0.47722
597.0000,0.47736
596.8000,0.47747
596.6000,0.477362
596.4000,0.477423
596.2000,0.477581
596.0000,0.477505
595.8000,0.47736
595.6000,0.477288
595.4000,0.477145
595.2000,0.477373
595.0000,0.477467
594.8000,0.477273
594.6000,0.477433
594.4000,0.477455
594.2000,0.477625
594.0000,0.477729
593.8000,0.477643
593.6000,0.47765
593.4000,0.477599
593.2000,0.4778
593.0000,0.478059
592.8000,0.478174
592.6000,0.478283
592.4000,0.478099
592.2000,0.47814
592.0000,0.478397
591.8000,0.478183
591.6000,0.478175
591.4000,0.478211
591.2000,0.477972
591.0000,0.478202
590.8000,0.478325
590.6000,0.478024
590.4000,0.478163
590.2000,0.478182
590.0000,0.47833
589.8000,0.478674
589.6000,0.478506
589.4000,0.478556
589.2000,0.478644
589.0000,0.478709
588.8000,0.478816
588.6000,0.478621
588.4000,0.478532
588.2000,0.478837
588.0000,0.4789
587.8000,0.47855
587.6000,0.478326
587.4000,0.478324
587.2000,0.478837
587.0000,0.479049
586.8000,0.478797
586.6000,0.478756
586.4000,0.478758
586.2000,0.478891
586.0000,0.479207
585.8000,0.479358
585.6000,0.479304
585.4000,0.479368
585.2000,0.479336
585.0000,0.479215
584.8000,0.479241
584.6000,0.479261
584.4000,0.47944
584.2000,0.479528
584.0000,0.479413
583.8000,0.479397
583.6000,0.479373
583.4000,0.479467
583.2000,0.479392
583.0000,0.479507
582.8000,0.479775
582.6000,0.479753
582.4000,0.479642
582.2000,0.479495
582.0000,0.479497
581.8000,0.479683
581.6000,0.479888
581.4000,0.479844
581.2000,0.479662
581.0000,0.47984
580.8000,0.480183
580.6000,0.480015
580.4000,0.479961
580.2000,0.479836
580.0000,0.47972
579.8000,0.480055
579.6000,0.480044
579.4000,0.480078
579.2000,0.480306
579.0000,0.480162
578.8000,0.480012
578.6000,0.480195
578.4000,0.480302
578.2000,0.480221
578.0000,0.480269
577.8000,0.480203
577.6000,0.480064
577.4000,0.480421
577.2000,0.48068
577.0000,0.480643
576.8000,0.480488
576.6000,0.480477
576.4000,0.48071
576.2000,0.480696
576.0000,0.480689
575.8000,0.480811
575.6000,0.480898
575.4000,0.480898
575.2000,0.480873
575.0000,0.480872
574.8000,0.480901
574.6000,0.480867
574.4000,0.481017
574.2000,0.481029
574.0000,0.480937
573.8000,0.481063
573.6000,0.481317
573.4000,0.481336
573.2000,0.48126
573.0000,0.481336
572.8000,0.481389
572.6000,0.481424
572.4000,0.481413
572.2000,0.481581
572.0000,0.481725
571.8000,0.481484
571.6000,0.481225
571.4000,0.481432
571.2000,0.481692
571.0000,0.481659
570.8000,0.48162
570.6000,0.481614
570.4000,0.481775
570.2000,0.481869
570.0000,0.481767
569.8000,0.481833
569.6000,0.48169
569.4000,0.481527
569.2000,0.481792
569.0000,0.482032
568.8000,0.481848
568.6000,0.48168
568.4000,0.481814
568.2000,0.482137
568.0000,0.482256
567.8000,0.482376
567.6000,0.48252
567.4000,0.482381
567.2000,0.482413
567.0000,0.482416
566.8000,0.482492
566.6000,0.48272
566.4000,0.482738
566.2000,0.482728
566.0000,0.482734
565.8000,0.482862
565.6000,0.48271
565.4000,0.48266
565.2000,0.482939
565.0000,0.482806
564.8000,0.482776
564.6000,0.482778
564.4000,0.482854
564.2000,0.482874
564.0000,0.482628
563.8000,0.482515
563.6000,0.482525
563.4000,0.482749
563.2000,0.483089
563.0000,0.483127
562.8000,0.482889
562.6000,0.482761
562.4000,0.483047
562.2000,0.483202
562.0000,0.483177
561.8000,0.483322
561.6000,0.483221
561.4000,0.483154
561.2000,0.483343
561.0000,0.483472
560.8000,0.483344
560.6000,0.483466
560.4000,0.483647
560.2000,0.483512
560.0000,0.483664
559.8000,0.483666
559.6000,0.483615
559.4000,0.483798
559.2000,0.483976
559.0000,0.483906
558.8000,0.483794
558.6000,0.4838
558.4000,0.483848
558.2000,0.484321
558.0000,0.484225
557.8000,0.483871
557.6000,0.484068
557.4000,0.484513
557.2000,0.484793
557.0000,0.484544
556.8000,0.484344
556.6000,0.484425
556.4000,0.484366
556.2000,0.484504
556.0000,0.484551
555.8000,0.484406
555.6000,0.484437
555.4000,0.484472
555.2000,0.48453
555.0000,0.484718
554.8000,0.484695
554.6000,0.484557
554.4000,0.484586
554.2000,0.484786
554.0000,0.484765
553.8000,0.4848
553.6000,0.485029
553.4000,0.485102
553.2000,0.485072
553.0000,0.484966
552.8000,0.485063
552.6000,0.485171
552.4000,0.485192
552.2000,0.485309
552.0000,0.485693
551.8000,0.485862
551.6000,0.485525
551.4000,0.485335
551.2000,0.485313
551.0000,0.485375
550.8000,0.485743
550.6000,0.485723
550.4000,0.485419
550.2000,0.485609
550.0000,0.485738
549.8000,0.485632
549.6000,0.48591
549.4000,0.485974
549.2000,0.485825
549.0000,0.485915
548.8000,0.485954
548.6000,0.486116
548.4000,0.486375
548.2000,0.486337
548.0000,0.486447
547.8000,0.486424
547.6000,0.486092
547.4000,0.486098
547.2000,0.486038
547.0000,0.486015
546.8000,0.48615
546.6000,0.486319
546.4000,0.486557
546.2000,0.486322
546.0000,0.486219
545.8000,0.486608
545.6000,0.486746
545.4000,0.486754
545.2000,0.486688
545.0000,0.486567
544.8000,0.486407
544.6000,0.486357
544.4000,0.486898
544.2000,0.48724
544.0000,0.486962
543.8000,0.48697
543.6000,0.487108
543.4000,0.487084
543.2000,0.487005
543.0000,0.487127
542.8000,0.487114
542.6000,0.487
542.4000,0.487268
542.2000,0.487409
542.0000,0.487558
541.8000,0.487406
541.6000,0.487286
541.4000,0.487635
541.2000,0.487945
541.0000,0.487871
540.8000,0.487797
540.6000,0.48784
540.4000,0.487646
540.2000,0.487666
540.0000,0.487882
539.8000,0.48782
539.6000,0.48779
539.4000,0.487897
539.2000,0.487932
539.0000,0.488172
538.8000,0.488303
538.6000,0.487986
538.4000,0.488129
538.2000,0.488507
538.0000,0.488542
537.8000,0.488523
537.6000,0.488166
537.4000,0.488132
537.2000,0.488744
537.0000,0.488784
536.8000,0.488326
536.6000,0.488584
536.4000,0.488862
536.2000,0.488791
536.0000,0.488887
535.8000,0.488785
535.6000,0.488807
535.4000,0.488843
535.2000,0.488869
535.0000,0.488912
534.8000,0.489034
534.6000,0.489382
534.4000,0.489418
534.2000,0.489211
534.0000,0.488971
533.8000,0.489166
533.6000,0.489396
533.4000,0.489387
533.2000,0.489451
533.0000,0.489688
532.8000,0.489679
532.6000,0.489546
532.4000,0.489744
532.2000,0.489843
532.0000,0.489707
531.8000,0.489702
531.6000,0.489804
531.4000,0.489706
531.2000,0.489935
531.0000,0.490131
530.8000,0.489816
530.6000,0.489795
530.4000,0.489951
530.2000,0.490226
530.0000,0.490461
529.8000,0.490456
529.6000,0.490462
529.4000,0.490595
529.2000,0.490736
529.0000,0.490783
528.8000,0.490408
528.6000,0.490398
528.4000,0.4909
528.2000,0.490909
528.0000,0.490737
527.8000,0.490791
527.6000,0.490901
527.4000,0.490908
527.2000,0.490953
527.0000,0.491247
526.8000,0.491291
526.6000,0.491013
526.4000,0.491078
526.2000,0.491229
526.0000,0.491343
525.8000,0.491395
525.6000,0.491191
525.4000,0.491271
525.2000,0.491664
525.0000,0.491696
524.8000,0.491772
524.6000,0.49194
524.4000,0.491847
524.2000,0.49189
524.0000,0.492348
523.8000,0.492557
523.6000,0.492304
523.4000,0.492128
523.2000,0.491927
523.0000,0.491921
522.8000,0.492209
522.6000,0.492265
522.4000,0.49208
522.2000,0.492282
522.0000,0.492552
521.8000,0.492427
521.6000,0.49247
521.4000,0.492758
521.2000,0.492929
521.0000,0.49271
520.8000,0.492561
520.6000,0.492717
520.4000,0.492813
520.2000,0.493116
520.0000,0.493124
519.8000,0.493087
519.6000,0.493341
519.4000,0.493206
519.2000,0.493304
519.0000,0.493703
518.8000,0.493767
518.6000,0.493682
518.4000,0.493581
518.2000,0.493432
518.0000,0.493636
517.8000,0.493899
517.6000,0.493984
517.4000,0.493855
517.2000,0.493859
517.0000,0.493894
516.8000,0.494046
516.6000,0.494048
516.4000,0.494085
516.2000,0.494228
516.0000,0.494397
515.8000,0.494695
515.6000,0.494568
515.4000,0.49476
515.2000,0.495227
515.0000,0.495069
514.8000,0.494899
514.6000,0.494979
514.4000,0.494616
514.2000,0.494597
514.0000,0.494939
513.8000,0.495058
513.6000,0.49508
513.4000,0.495078
513.2000,0.495114
513.0000,0.495283
512.8000,0.495526
512.6000,0.495639
512.4000,0.495536
512.2000,0.495556
512.0000,0.495527
511.8000,0.495648
511.6000,0.49588
511.4000,0.496014
511.2000,0.496226
511.0000,0.495819
510.8000,0.495948
510.6000,0.49652
510.4000,0.496609
510.2000,0.496486
510.0000,0.496581
509.8000,0.496507
509.6000,0.496688
509.4000,0.496993
509.2000,0.497116
509.0000,0.496889
508.8000,0.497092
508.6000,0.497315
508.4000,0.497326
508.2000,0.49757
508.0000,0.497509
507.8000,0.497646
507.6000,0.498086
507.4000,0.498295
507.2000,0.498215
507.0000,0.497875
506.8000,0.497943
506.6000,0.498458
506.4000,0.498315
506.2000,0.498096
506.0000,0.498267
505.8000,0.498538
505.6000,0.498482
505.4000,0.49838
505.2000,0.498543
505.0000,0.498747
504.8000,0.499325
504.6000,0.499723
504.4000,0.499647
504.2000,0.499635
504.0000,0.499551
503.8000,0.499723
503.6000,0.499923
503.4000,0.499804
503.2000,0.499885
503.0000,0.500065
502.8000,0.500197
502.6000,0.500202
502.4000,0.500606
502.2000,0.500821
502.0000,0.50079
501.8000,0.500956
501.6000,0.500699
501.4000,0.500854
501.2000,0.501105
501.0000,0.501121
500.8000,0.501266
500.6000,0.501454
500.4000,0.501673
500.2000,0.501817
500.0000,0.50167
499.8000,0.50185
499.6000,0.502323
499.4000,0.502447
499.2000,0.502335
499.0000,0.502287
498.8000,0.502509
498.6000,0.50282
498.4000,0.50297
498.2000,0.502953
498.0000,0.503239
497.8000,0.503568
497.6000,0.503471
497.4000,0.503512
497.2000,0.503703
497.0000,0.503859
496.8000,0.504355
496.6000,0.504533
496.4000,0.504659
496.2000,0.504576
496.0000,0.504795
495.8000,0.505193
495.6000,0.505229
495.4000,0.505375
495.2000,0.505567
495.0000,0.505567
494.8000,0.505692
494.6000,0.506274
494.4000,0.506441
494.2000,0.506236
494.0000,0.50632
493.8000,0.50673
493.6000,0.506809
493.4000,0.506941
493.2000,0.507262
493.0000,0.507446
492.8000,0.50759
492.6000,0.507994
492.4000,0.50804
492.2000,0.508
492.0000,0.50835
491.8000,0.508657
491.6000,0.509045
491.4000,0.50922
491.2000,0.509151
491.0000,0.509514
490.8000,0.509779
490.6000,0.50986
490.4000,0.510141
490.2000,0.510201
490.0000,0.510598
489.8000,0.511029
489.6000,0.511076
489.4000,0.511283
489.2000,0.511344
489.0000,0.511522
488.8000,0.511724
488.6000,0.511749
488.4000,0.512258
488.2000,0.512741
488.0000,0.512846
487.8000,0.513055
487.6000,0.513293
487.4000,0.513378
487.2000,0.513655
487.0000,0.514041
486.8000,0.514219
486.6000,0.514536
486.4000,0.515089
486.2000,0.515263
486.0000,0.515381
485.8000,0.515454
485.6000,0.515707
485.4000,0.516273
485.2000,0.516634
485.0000,0.516677
484.8000,0.516658
484.6000,0.516908
484.4000,0.517346
484.2000,0.517655
484.0000,0.518026
483.8000,0.518266
483.6000,0.518283
483.4000,0.518582
483.2000,0.51867
483.0000,0.519015
482.8000,0.519474
482.6000,0.519791
482.4000,0.520355
482.2000,0.520696
482.0000,0.520833
481.8000,0.520723
481.6000,0.521054
481.4000,0.521538
481.2000,0.521743
481.0000,0.522169
480.8000,0.522517
480.6000,0.522521
480.4000,0.522566
480.2000,0.522774
480.0000,0.523194
479.8000,0.523897
479.6000,0.524086
479.4000,0.524319
479.2000,0.524672
479.0000,0.525144
478.8000,0.525427
478.6000,0.525651
478.4000,0.525973
478.2000,0.526001
478.0000,0.526143
477.8000,0.526397
477.6000,0.526716
477.4000,0.526877
477.2000,0.527072
477.0000,0.527294
476.8000,0.527821
476.6000,0.528304
476.4000,0.528657
476.2000,0.52884
476.0000,0.528895
475.8000,0.529276
475.6000,0.52983
475.4000,0.53011
475.2000,0.530017
475.0000,0.530154
474.8000,0.530505
474.6000,0.530608
474.4000,0.530728
474.2000,0.531112
474.0000,0.531786
473.8000,0.532268
473.6000,0.532333
473.4000,0.532325
473.2000,0.532631
473.0000,0.532914
472.8000,0.533188
472.6000,0.533397
472.4000,0.533863
472.2000,0.534275
472.0000,0.534175
471.8000,0.534497
471.6000,0.534668
471.4000,0.535012
471.2000,0.535158
471.0000,0.535169
470.8000,0.535636
470.6000,0.536076
470.4000,0.536513
470.2000,0.536666
470.0000,0.536927
469.8000,0.537502
469.6000,0.537457
469.4000,0.537437
469.2000,0.537557
469.0000,0.537603
468.8000,0.537916
468.6000,0.538094
468.4000,0.538579
468.2000,0.53881
468.0000,0.538939
467.8000,0.539363
467.6000,0.539645
467.4000,0.539769
467.2000,0.539795
467.0000,0.540145
466.8000,0.54038
466.6000,0.540706
466.4000,0.541081
466.2000,0.541107
466.0000,0.541281
465.8000,0.541523
465.6000,0.541708
465.4000,0.541924
465.2000,0.542248
465.0000,0.542687
464.8000,0.54284
464.6000,0.542505
464.4000,0.54284
464.2000,0.54342
464.0000,0.54351
463.8000,0.543638
463.6000,0.543572
463.4000,0.543923
463.2000,0.544729
463.0000,0.54461
462.8000,0.544253
462.6000,0.544361
462.4000,0.544258
462.2000,0.544729
462.0000,0.545645
461.8000,0.545885
461.6000,0.545884
461.4000,0.545898
461.2000,0.545785
461.0000,0.545913
460.8000,0.546356
460.6000,0.54675
460.4000,0.546558
460.2000,0.546443
460.0000,0.547012
459.8000,0.5474
459.6000,0.547269
459.4000,0.547289
459.2000,0.547721
459.0000,0.547996
458.8000,0.548232
458.6000,0.548289
458.4000,0.548387
458.2000,0.548424
458.0000,0.548531
457.8000,0.548927
457.6000,0.548908
457.4000,0.549064
457.2000,0.549067
457.0000,0.548951
456.8000,0.549509
456.6000,0.550089
456.4000,0.550112
456.2000,0.550076
456.0000,0.550429
455.8000,0.550235
455.6000,0.550157
455.4000,0.55058
455.2000,0.550998
455.0000,0.550889
454.8000,0.550746
454.6000,0.551209
454.4000,0.551433
454.2000,0.551569
454.0000,0.551635
453.8000,0.551615
453.6000,0.551523
453.4000,0.551934
453.2000,0.552328
453.0000,0.55249
452.8000,0.552793
452.6000,0.552736
452.4000,0.552723
452.2000,0.552902
452.0000,0.553261
451.8000,0.553295
451.6000,0.553445
451.4000,0.553397
451.2000,0.553065
451.0000,0.553413
450.8000,0.553588
450.6000,0.553675
450.4000,0.55383
450.2000,0.553947
450.0000,0.55482
449.8000,0.554948
449.6000,0.554948
449.4000,0.555019
449.2000,0.555362
449.0000,0.555439
448.8000,0.555542
448.6000,0.555384
448.4000,0.555302
448.2000,0.555653
448.0000,0.555971
447.8000,0.556342
447.6000,0.556359
447.4000,0.556283
447.2000,0.556626
447.0000,0.556691
446.8000,0.556497
446.6000,0.556792
446.4000,0.557153
446.2000,0.556849
446.0000,0.557216
445.8000,0.557507
445.6000,0.557362
445.4000,0.557468
445.2000,0.557445
445.0000,0.557885
444.8000,0.558375
444.6000,0.558058
444.4000,0.557801
444.2000,0.558178
444.0000,0.558159
443.8000,0.558068
443.6000,0.558551
443.4000,0.559007
443.2000,0.559112
443.0000,0.55901
442.8000,0.558738
442.6000,0.558831
442.4000,0.559068
442.2000,0.559219
442.0000,0.559491
441.8000,0.559422
441.6000,0.559293
441.4000,0.559595
441.2000,0.559744
441.0000,0.559817
440.8000,0.559968
440.6000,0.560009
440.4000,0.560154
440.2000,0.560214
440.0000,0.560292
439.8000,0.560477
439.6000,0.560906
439.4000,0.560675
439.2000,0.560676
439.0000,0.561219
438.8000,0.561311
438.6000,0.561584
438.4000,0.561688
438.2000,0.561943
438.0000,0.562194
437.8000,0.561879
437.6000,0.562065
437.4000,0.562305
437.2000,0.561976
437.0000,0.561852
436.8000,0.562471
436.6000,0.562986
436.4000,0.56316
436.2000,0.56308
436.0000,0.562746
435.8000,0.562896
435.6000,0.562906
435.4000,0.563381
435.2000,0.563664
435.0000,0.563528
434.8000,0.563595
434.6000,0.563823
434.4000,0.564113
434.2000,0.564088
434.0000,0.564385
433.8000,0.564465
433.6000,0.564372
433.4000,0.564555
433.2000,0.564871
433.0000,0.565131
432.8000,0.565444
432.6000,0.565603
432.4000,0.565637
432.2000,0.565823
432.0000,0.565991
431.8000,0.566119
431.6000,0.565953
431.4000,0.565701
431.2000,0.565675
431.0000,0.566144
430.8000,0.566569
430.6000,0.566897
430.4000,0.56663
430.2000,0.56627
430.0000,0.566853
429.8000,0.567011
429.6000,0.56699
429.4000,0.567369
429.2000,0.56752
429.0000,0.567659
428.8000,0.567963
428.6000,0.568033
428.4000,0.567897
428.2000,0.568165
428.0000,0.568443
427.8000,0.568215
427.6000,0.568386
427.4000,0.568897
427.2000,0.56874
427.0000,0.568805
426.8000,0.568973
426.6000,0.569009
426.4000,0.569168
426.2000,0.569271
426.0000,0.569339
425.8000,0.569026
425.6000,0.568925
425.4000,0.569243
425.2000,0.570008
425.0000,0.570077
424.8000,0.570207
424.6000,0.570248
424.4000,0.569871
424.2000,0.570174
424.0000,0.570343
423.8000,0.570597
423.6000,0.571198
423.4000,0.571107
423.2000,0.570824
423.0000,0.571022
422.8000,0.571281
422.6000,0.571766
422.4000,0.571661
422.2000,0.571811
422.0000,0.572088
421.8000,0.571888
421.6000,0.572227
421.4000,0.572342
421.2000,0.572087
421.0000,0.572182
420.8000,0.572705
420.6000,0.572785
420.4000,0.572595
420.2000,0.572712
420.0000,0.572999
419.8000,0.573223
419.6000,0.573285
419.4000,0.573421
419.2000,0.573688
419.0000,0.573638
418.8000,0.573903
418.6000,0.574257
418.4000,0.574598
418.2000,0.574704
418.0000,0.574453
417.8000,0.575074
417.6000,0.575207
417.4000,0.575436
417.2000,0.57554
417.0000,0.575674
416.8000,0.575763
416.6000,0.576053
416.4000,0.576528
416.2000,0.57629
416.0000,0.57654
415.8000,0.576777
415.6000,0.576673
415.4000,0.576801
415.2000,0.57686
415.0000,0.577218
414.8000,0.577386
414.6000,0.577139
414.4000,0.577107
414.2000,0.577081
414.0000,0.577439
413.8000,0.578006
413.6000,0.577832
413.4000,0.577915
413.2000,0.578467
413.0000,0.577905
412.8000,0.578018
412.6000,0.578619
412.4000,0.579043
412.2000,0.579413
412.0000,0.579236
411.8000,0.579111
411.6000,0.579376
411.4000,0.579531
411.2000,0.5799
411.0000,0.580243
410.8000,0.579926
410.6000,0.579961
410.4000,0.580139
410.2000,0.580087
410.0000,0.58079
409.8000,0.580334
409.6000,0.580651
409.4000,0.580783
409.2000,0.58059
409.0000,0.580827
408.8000,0.581234
408.6000,0.581422
408.4000,0.581181
408.2000,0.580804
408.0000,0.581065
407.8000,0.582038
407.6000,0.582288
407.4000,0.582155
407.2000,0.582392
407.0000,0.582433
406.8000,0.582661
406.6000,0.582949
406.4000,0.583451
406.2000,0.583785
406.0000,0.583555
405.8000,0.583834
405.6000,0.584021
405.4000,0.583924
405.2000,0.584563
405.0000,0.584986
404.8000,0.584825
404.6000,0.584781
404.4000,0.584816
404.2000,0.584926
404.0000,0.584881
403.8000,0.584837
403.6000,0.585732
403.4000,0.586379
403.2000,0.586698
403.0000,0.586568
402.8000,0.586291
402.6000,0.586799
402.4000,0.586616
402.2000,0.586632
402.0000,0.587488
401.8000,0.587755
401.6000,0.58734
401.4000,0.587917
401.2000,0.589098
401.0000,0.589214
400.8000,0.589162
400.6000,0.589289
400.4000,0.588957
400.2000,0.588911
400.0000,0.58894
399.8000,0.589101
399.6000,0.58922
399.4000,0.589911
399.2000,0.591188
399.0000,0.590994
398.8000,0.590114
398.6000,0.590225
398.4000,0.590964
398.2000,0.591077
398.0000,0.591041
397.8000,0.590892
397.6000,0.590883
397.4000,0.591192
397.2000,0.592083
397.0000,0.592378
396.8000,0.592038
396.6000,0.592616
396.4000,0.593264
396.2000,0.592991
396.0000,0.592929
395.8000,0.593568
395.6000,0.593767
395.4000,0.593502
395.2000,0.593083
395.0000,0.593751
394.8000,0.59427
394.6000,0.594422
394.4000,0.594647
394.2000,0.594814
394.0000,0.595187
393.8000,0.594946
393.6000,0.595108
393.4000,0.595314
393.2000,0.595521
393.0000,0.596131
392.8000,0.5962
392.6000,0.595454
392.4000,0.595688
392.2000,0.596228
392.0000,0.596642
391.8000,0.597265
391.6000,0.597312
391.4000,0.597308
391.2000,0.597218
391.0000,0.597385
390.8000,0.597387
390.6000,0.597628
390.4000,0.59799
390.2000,0.59859
390.0000,0.599266
389.8000,0.59934
389.6000,0.599254
389.4000,0.599445
389.2000,0.599434
389.0000,0.599357
388.8000,0.599585
388.6000,0.599719
388.4000,0.599933
388.2000,0.600442
388.0000,0.600518
387.8000,0.600633
387.6000,0.601301
387.4000,0.601723
387.2000,0.601786
387.0000,0.601535
386.8000,0.601763
386.6000,0.601896
386.4000,0.60176
386.2000,0.602158
386.0000,0.602538
385.8000,0.602842
385.6000,0.602836
385.4000,0.602902
385.2000,0.603356
385.0000,0.603465
384.8000,0.60415
384.6000,0.604367
384.4000,0.603845
384.2000,0.604197
384.0000,0.605022
383.8000,0.604618
383.6000,0.604989
383.4000,0.605443
383.2000,0.605481
383.0000,0.60573
382.8000,0.605798
382.6000,0.60629
382.4000,0.60661
382.2000,0.606844
382.0000,0.607072
381.8000,0.607286
381.6000,0.607048
381.4000,0.607387
381.2000,0.607695
381.0000,0.607346
380.8000,0.607969
380.6000,0.608662
380.4000,0.608994
380.2000,0.609258
380.0000,0.609478
379.8000,0.609405
379.6000,0.609672
379.4000,0.610301
379.2000,0.609663
379.0000,0.609549
378.8000,0.610077
378.6000,0.610612
378.4000,0.610543
378.2000,0.610748
378.0000,0.611216
377.8000,0.611493
377.6000,0.611656
377.4000,0.611267
377.2000,0.611606
377.0000,0.612601
376.8000,0.613352
376.6000,0.61312
376.4000,0.612774
376.2000,0.612956
376.0000,0.613371
375.8000,0.613839
375.6000,0.613413
375.4000,0.613316
375.2000,0.614732
375.0000,0.615119
374.8000,0.614988
374.6000,0.615581
374.4000,0.615461
374.2000,0.615348
374.0000,0.615652
373.8000,0.616063
373.6000,0.616619
373.4000,0.61694
373.2000,0.61678
373.0000,0.615753
372.8000,0.616003
372.6000,0.617867
372.4000,0.617825
372.2000,0.617508
372.0000,0.618083
371.8000,0.618852
371.6000,0.618977
371.4000,0.617778
371.2000,0.618354
371.0000,0.61943
370.8000,0.619584
370.6000,0.620191
370.4000,0.620834
370.2000,0.620769
370.0000,0.617745
369.8000,0.617372
369.6000,0.619268
369.4000,0.620018
369.2000,0.620621
369.0000,0.621967
368.8000,0.620987
368.6000,0.619839
368.4000,0.619366
368.2000,0.619486
368.0000,0.620998
367.8000,0.621155
367.6000,0.620102
367.4000,0.620252
367.2000,0.621913
367.0000,0.622727
366.8000,0.622721
366.6000,0.623412
366.4000,0.622948
366.2000,0.623187
366.0000,0.623903
365.8000,0.62364
365.6000,0.624749
365.4000,0.625739
365.2000,0.624807
365.0000,0.624317
364.8000,0.625017
364.6000,0.625076
364.4000,0.624624
364.2000,0.625994
364.0000,0.627798
363.8000,0.627025
363.6000,0.626476
363.4000,0.627573
363.2000,0.6278
363.0000,0.627973
362.8000,0.628394
362.6000,0.628409
362.4000,0.629446
362.2000,0.629551
362.0000,0.629679
361.8000,0.630264
361.6000,0.630317
361.4000,0.630114
361.2000,0.630919
361.0000,0.632106
360.8000,0.631094
360.6000,0.631295
360.4000,0.631861
360.2000,0.63215
360.0000,0.63285
359.8000,0.632556
359.6000,0.633252
359.4000,0.63335
359.2000,0.634018
359.0000,0.634655
358.8000,0.634482
358.6000,0.635157
358.4000,0.63508
358.2000,0.635842
358.0000,0.636908
357.8000,0.636792
357.6000,0.636558
357.4000,0.636925
357.2000,0.637066
357.0000,0.637115
356.8000,0.637085
356.6000,0.636953
356.4000,0.63823
356.2000,0.639426
356.0000,0.639475
355.8000,0.639263
355.6000,0.639126
355.4000,0.639895
355.2000,0.63991
355.0000,0.640105
354.8000,0.641551
354.6000,0.642233
354.4000,0.642016
354.2000,0.641673
354.0000,0.641411
353.8000,0.641552
353.6000,0.641565
353.4000,0.641882
353.2000,0.642937
353.0000,0.643483
352.8000,0.643541
352.6000,0.643694
352.4000,0.644922
352.2000,0.644624
352.0000,0.643924
351.8000,0.64511
351.6000,0.645081
351.4000,0.645381
351.2000,0.646064
351.0000,0.645915
350.8000,0.646729
350.6000,0.648263
350.4000,0.648139
350.2000,0.648115
350.0000,0.649254
349.8000,0.648808
349.6000,0.648888
349.4000,0.650391
349.2000,0.650446
349.0000,0.651254
348.8000,0.651336
348.6000,0.649662
348.4000,0.649172
348.2000,0.649454
348.0000,0.649403
347.8000,0.650332
347.6000,0.652363
347.4000,0.652351
347.2000,0.651822
347.0000,0.65177
346.8000,0.652825
346.6000,0.654107
346.4000,0.654802
346.2000,0.654895
346.0000,0.653558
345.8000,0.653567
345.6000,0.654202
345.4000,0.655027
345.2000,0.656627
345.0000,0.657136
344.8000,0.657217
344.6000,0.657308
344.4000,0.658045
344.2000,0.658518
344.0000,0.658523
343.8000,0.658458
343.6000,0.657964
343.4000,0.657348
343.2000,0.658513
343.0000,0.65976
342.8000,0.659667
342.6000,0.660328
342.4000,0.660281
342.2000,0.661516
342.0000,0.662673
341.8000,0.662856
341.6000,0.662724
341.4000,0.661488
341.2000,0.662227
341.0000,0.663148
340.8000,0.663136
340.6000,0.663473
340.4000,0.664235
340.2000,0.664523
340.0000,0.664896
339.8000,0.664688
339.6000,0.664581
339.4000,0.665324
339.2000,0.666101
339.0000,0.665746
338.8000,0.666178
338.6000,0.666321
338.4000,0.665578
338.2000,0.666753
338.0000,0.668149
337.8000,0.66737
337.6000,0.668092
337.4000,0.670121
337.2000,0.669989
337.0000,0.668542
336.8000,0.668892
336.6000,0.67013
336.4000,0.669863
336.2000,0.671724
336.0000,0.672468
335.8000,0.671888
335.6000,0.6729
335.4000,0.673256
335.2000,0.674034
335.0000,0.673654
334.8000,0.673062
334.6000,0.673449
334.4000,0.673056
334.2000,0.67445
334.0000,0.675581
333.8000,0.67652
333.6000,0.677742
333.4000,0.677191
333.2000,0.676478
333.0000,0.676939
332.8000,0.678252
332.6000,0.678908
332.4000,0.678881
332.2000,0.67916
332.0000,0.679254
331.8000,0.679435
331.6000,0.679534
331.4000,0.67906
331.2000,0.678709
331.0000,0.679392
330.8000,0.680882
330.6000,0.680888
330.4000,0.680406
330.2000,0.680821
330.0000,0.683076
329.8000,0.683799
329.6000,0.68442
329.4000,0.685439
329.2000,0.684384
329.0000,0.684935
328.8000,0.686648
328.6000,0.686153
328.4000,0.685778
328.2000,0.685908
328.0000,0.686062
327.8000,0.685866
327.6000,0.685774
327.4000,0.687097
327.2000,0.688837
327.0000,0.689245
326.8000,0.688374
326.6000,0.688294
326.4000,0.68862
326.2000,0.690083
326.0000,0.690747
325.8000,0.690329
325.6000,0.690014
325.4000,0.691275
325.2000,0.691948
325.0000,0.692263
324.8000,0.692594
324.6000,0.692776
324.4000,0.693133
324.2000,0.694388
324.0000,0.694711
323.8000,0.693537
323.6000,0.6942
323.4000,0.694421
323.2000,0.695397
323.0000,0.696278
322.8000,0.695923
322.6000,0.696727
322.4000,0.697376
322.2000,0.69685
322.0000,0.698105
321.8000,0.698268
321.6000,0.698234
321.4000,0.699984
321.2000,0.700461
321.0000,0.701645
320.8000,0.700924
320.6000,0.700601
320.4000,0.701892
320.2000,0.702824
320.0000,0.703658
319.8000,0.703228
319.6000,0.70279
319.4000,0.703918
319.2000,0.704323
319.0000,0.703356
318.8000,0.70347
318.6000,0.704667
318.4000,0.707038
318.2000,0.708064
318.0000,0.707693
317.8000,0.70705
317.6000,0.705762
317.4000,0.705845
317.2000,0.706242
317.0000,0.706284
316.8000,0.707088
316.6000,0.706328
316.4000,0.70757
316.2000,0.71055
316.0000,0.710821
315.8000,0.711106
315.6000,0.711597
315.4000,0.712282
315.2000,0.712276
315.0000,0.711519
314.8000,0.713007
314.6000,0.713316
314.4000,0.711401
314.2000,0.712722
314.0000,0.713561
313.8000,0.714528
313.6000,0.718149
313.4000,0.716867
313.2000,0.71471
313.0000,0.716719
312.8000,0.717997
312.6000,0.718778
312.4000,0.71879
312.2000,0.71739
312.0000,0.718667
311.8000,0.719768
311.6000,0.719388
311.4000,0.718625
311.2000,0.71861
311.0000,0.719975
310.8000,0.720149
310.6000,0.721358
310.4000,0.723113
310.2000,0.722437
310.0000,0.720679
309.8000,0.721031
309.6000,0.723267
309.4000,0.724338
309.2000,0.723914
309.0000,0.723554
308.8000,0.724139
308.6000,0.725392
308.4000,0.726111
308.2000,0.724194
308.0000,0.724381
307.8000,0.726188
307.6000,0.727182
307.4000,0.727426
307.2000,0.727304
307.0000,0.728399
306.8000,0.728036
306.6000,0.727883
306.4000,0.728722
306.2000,0.730257
306.0000,0.731115
305.8000,0.729193
305.6000,0.729563
305.4000,0.730901
305.2000,0.730678
305.0000,0.731234
304.8000,0.732276
304.6000,0.734589
304.4000,0.735083
304.2000,0.73237
304.0000,0.731095
303.8000,0.730442
303.6000,0.731541
303.4000,0.733133
303.2000,0.73385
303.0000,0.732646
302.8000,0.731842
302.6000,0.733061
302.4000,0.732538
302.2000,0.735146
302.0000,0.735335
301.8000,0.735083
301.6000,0.736276
301.4000,0.734422
301.2000,0.735754
301.0000,0.737589
300.8000,0.737707
300.6000,0.736807
300.4000,0.736483
300.2000,0.737392
300.0000,0.740815
299.8000,0.74224
299.6000,0.740652
299.4000,0.740738
299.2000,0.738227
299.0000,0.736716
298.8000,0.738865
298.6000,0.7399
298.4000,0.741621
298.2000,0.742225
298.0000,0.738715
297.8000,0.737001
297.6000,0.741366
297.4000,0.742688
297.2000,0.741512
297.0000,0.742361
296.8000,0.742172
296.6000,0.741703
296.4000,0.739813
296.2000,0.741111
296.0000,0.742
295.8000,0.745098
295.6000,0.745459
295.4000,0.741904
295.2000,0.742419
295.0000,0.742915
294.8000,0.743716
294.6000,0.74385
294.4000,0.743452
294.2000,0.742137
294.0000,0.74197
293.8000,0.742741
293.6000,0.743837
293.4000,0.744736
293.2000,0.74293
293.0000,0.744096
292.8000,0.743868
292.6000,0.744055
292.4000,0.746058
292.2000,0.743621
292.0000,0.743442
291.8000,0.744943
291.6000,0.744885
291.4000,0.744164
291.2000,0.746362
291.0000,0.747688
290.8000,0.74283
290.6000,0.742218
290.4000,0.748301
290.2000,0.748317
290.0000,0.743015
289.8000,0.744421
289.6000,0.747638
289.4000,0.74616
289.2000,0.749466
289.0000,0.750096
288.8000,0.744701
288.6000,0.744021
288.4000,0.743903
288.2000,0.743449
288.0000,0.743988
287.8000,0.746778
287.6000,0.748029
287.4000,0.747727
287.2000,0.742733
287.0000,0.739279
286.8000,0.743403
286.6000,0.745763
286.4000,0.744624
286.2000,0.740805
286.0000,0.738728
285.8000,0.741463
285.6000,0.743862
285.4000,0.741887
285.2000,0.741
285.0000,0.743177
284.8000,0.743648
284.6000,0.740023
284.4000,0.739969
284.2000,0.742484
284.0000,0.739191
283.8000,0.735474
283.6000,0.73574
283.4000,0.737953
283.2000,0.736908
283.0000,0.732502
282.8000,0.734671
282.6000,0.738684
282.4000,0.7418
282.2000,0.74205
282.0000,0.736621
281.8000,0.733818
281.6000,0.734269
281.4000,0.738113
281.2000,0.729239
281.0000,0.727317
280.8000,0.733568
280.6000,0.730143
280.4000,0.727926
280.2000,0.725559
280.0000,0.726952
279.8000,0.725778
279.6000,0.726777
279.4000,0.726455
279.2000,0.724771
279.0000,0.728837
278.8000,0.72997
278.6000,0.720973
278.4000,0.713697
278.2000,0.716956
278.0000,0.718558
277.8000,0.718387
277.6000,0.714863
277.4000,0.709794
277.2000,0.712385
277.0000,0.713096
276.8000,0.712199
276.6000,0.712827
276.4000,0.708035
276.2000,0.704261
276.0000,0.705279
275.8000,0.703814
275.6000,0.702445
275.4000,0.699992
275.2000,0.695865
275.0000,0.696658
274.8000,0.699552
274.6000,0.693805
274.4000,0.692648
274.2000,0.693708
274.0000,0.693682
273.8000,0.687559
273.6000,0.678701
273.4000,0.678665
273.2000,0.680026
273.0000,0.683182
272.8000,0.686647
272.6000,0.684709
272.4000,0.674711
272.2000,0.666925
272.0000,0.663083
271.8000,0.662575
271.6000,0.669262
271.4000,0.667226
271.2000,0.657937
271.0000,0.65207
270.8000,0.646108
270.6000,0.650513
270.4000,0.64879
270.2000,0.64549
270.0000,0.642064
269.8000,0.639596
269.6000,0.635673
269.4000,0.629979
269.2000,0.633496
269.0000,0.628619
268.8000,0.625041
268.6000,0.620334
268.4000,0.614341
268.2000,0.618939
268.0000,0.618817
267.8000,0.609254
267.6000,0.607223
267.4000,0.605892
267.2000,0.603325
267.0000,0.60465
266.8000,0.606871
266.6000,0.60162
266.4000,0.594278
266.2000,0.599217
266.0000,0.596542
265.8000,0.590012
265.6000,0.587243
265.4000,0.579297
265.2000,0.571941
265.0000,0.570702
264.8000,0.573023
264.6000,0.574972
264.4000,0.575415
264.2000,0.566714
264.0000,0.559316
263.8000,0.563659
263.6000,0.561117
263.4000,0.553098
263.2000,0.550927
263.0000,0.551632
262.8000,0.546951
262.6000,0.543329
262.4000,0.543181
262.2000,0.541987
262.0000,0.532632
261.8000,0.526908
261.6000,0.53286
261.4000,0.530139
261.2000,0.526502
261.0000,0.52237
260.8000,0.517102
260.6000,0.519338
260.4000,0.519907
260.2000,0.512366
260.0000,0.508508
259.8000,0.515158
259.6000,0.509971
259.4000,0.507549
259.2000,0.510794
259.0000,0.507758
258.8000,0.497754
258.6000,0.495063
258.4000,0.498678
258.2000,0.496471
258.0000,0.502299
257.8000,0.498477
257.6000,0.492365
257.4000,0.489837
257.2000,0.488802
257.0000,0.494115
256.8000,0.488917
256.6000,0.486812
256.4000,0.484152
256.2000,0.481717
256.0000,0.48179
255.8000,0.473914
255.6000,0.478323
255.4000,0.476203
255.2000,0.474899
255.0000,0.482672
254.8000,0.472863
254.6000,0.470694
254.4000,0.478633
254.2000,0.47384
254.0000,0.474077
253.8000,0.481262
253.6000,0.488803
253.4000,0.484549
253.2000,0.476589
253.0000,0.477508
252.8000,0.480373
252.6000,0.482572
252.4000,0.482524
252.2000,0.479745
252.0000,0.479331
251.8000,0.482559
251.6000,0.478769
251.4000,0.469429
251.2000,0.470248
251.0000,0.480405
250.8000,0.483748
250.6000,0.470381
250.4000,0.46963
250.2000,0.476869
250.0000,0.475394
249.8000,0.474942
249.6000,0.472367
249.4000,0.480314
249.2000,0.482885
249.0000,0.47152
248.8000,0.47641
248.6000,0.477883
248.4000,0.471935
248.2000,0.484575
248.0000,0.489363
247.8000,0.471572
247.6000,0.469183
247.4000,0.47849
247.2000,0.476117
247.0000,0.478339
246.8000,0.474869
246.6000,0.468727
246.4000,0.474529
246.2000,0.478537
246.0000,0.471964
245.8000,0.470603
245.6000,0.472386
245.4000,0.46943
245.2000,0.472631
245.0000,0.472894
244.8000,0.469925
244.6000,0.475767
244.4000,0.480637
244.2000,0.480307
244.0000,0.474434
243.8000,0.472207
243.6000,0.473572
243.4000,0.470969
243.2000,0.470927
243.0000,0.47022
242.8000,0.463602
242.6000,0.459548
242.4000,0.468086
242.2000,0.473497
242.0000,0.469833
241.8000,0.473667
241.6000,0.476975
241.4000,0.473998
241.2000,0.472051
241.0000,0.476754
240.8000,0.471482
240.6000,0.468498
240.4000,0.471343
240.2000,0.477684
240.0000,0.480343
239.8000,0.474059
239.6000,0.473324
239.4000,0.48294
239.2000,0.481247
239.0000,0.475618
238.8000,0.474167
238.6000,0.467867
238.4000,0.472207
238.2000,0.468913
238.0000,0.466992
237.8000,0.47659
237.6000,0.473485
237.4000,0.465755
237.2000,0.465566
237.0000,0.464546
236.8000,0.470377
236.6000,0.480604
236.4000,0.477026
236.2000,0.468128
236.0000,0.472079
235.8000,0.471911
235.6000,0.471702
235.4000,0.469178
235.2000,0.468859
235.0000,0.477597
234.8000,0.474486
234.6000,0.473304
234.4000,0.476213
234.2000,0.474733
234.0000,0.477392
233.8000,0.469529
233.6000,0.457128
233.4000,0.45898
233.2000,0.464072
233.0000,0.468613
232.8000,0.473621
232.6000,0.475803
232.4000,0.474754
232.2000,0.476655
232.0000,0.470864
231.8000,0.461374
231.6000,0.466922
231.4000,0.471757
231.2000,0.469327
231.0000,0.478021
230.8000,0.482352
230.6000,0.484156
230.4000,0.487018
230.2000,0.482993
230.0000,0.479729
229.8000,0.472465
229.6000,0.466575
229.4000,0.472627
229.2000,0.478143
229.0000,0.475563
228.8000,0.477631
228.6000,0.472205
228.4000,0.46282
228.2000,0.470056
228.0000,0.477489
227.8000,0.481461
227.6000,0.485613
227.4000,0.480108
227.2000,0.47329
227.0000,0.472182
226.8000,0.475681
226.6000,0.469475
226.4000,0.464638
226.2000,0.474714
226.0000,0.471868
225.8000,0.472786
225.6000,0.477018
225.4000,0.470191
225.2000,0.471185
225.0000,0.465281
224.8000,0.469204
224.6000,0.47755
224.4000,0.475867
224.2000,0.470161
224.0000,0.465092
223.8000,0.471056
223.6000,0.480612
223.4000,0.474857
223.2000,0.464292
223.0000,0.460529
222.8000,0.466855
222.6000,0.474102
222.4000,0.473643
222.2000,0.474399
222.0000,0.469893
221.8000,0.463044
221.6000,0.468768
221.4000,0.467735
221.2000,0.470271
221.0000,0.476895
220.8000,0.477097
220.6000,0.47981
220.4000,0.474896
220.2000,0.469083
220.0000,0.466869
219.8000,0.466922
219.6000,0.466725
219.4000,0.470818
219.2000,0.473525
219.0000,0.469978
218.8000,0.472019
218.6000,0.476374
218.4000,0.473053
218.2000,0.466784
218.0000,0.472091
217.8000,0.474946
217.6000,0.459667
217.4000,0.456022
217.2000,0.465956
217.0000,0.480167
216.8000,0.480769
216.6000,0.473048
216.4000,0.468868
216.2000,0.468032
216.0000,0.471875
215.8000,0.478819
215.6000,0.481151
215.4000,0.469776
215.2000,0.471282
215.0000,0.469763
214.8000,0.469162
214.6000,0.470634
214.4000,0.461347
214.2000,0.457723
214.0000,0.462813
213.8000,0.473189
213.6000,0.47255
213.4000,0.47007
213.2000,0.472739
213.0000,0.474325
212.8000,0.466893
212.6000,0.468189
212.4000,0.475579
212.2000,0.468251
212.0000,0.464856
211.8000,0.470043
211.6000,0.462957
211.4000,0.453079
211.2000,0.455497
211.0000,0.455189
210.8000,0.460798
210.6000,0.469966
210.4000,0.469218
210.2000,0.471437
210.0000,0.479341
209.8000,0.479877
209.6000,0.46978
209.4000,0.465558
209.2000,0.463745
209.0000,0.462593
208.8000,0.468195
208.6000,0.477224
208.4000,0.484009
208.2000,0.477632
208.0000,0.477398
207.8000,0.481713
207.6000,0.480902
207.4000,0.475101
207.2000,0.476125
207.0000,0.48235
206.8000,0.47553
206.6000,0.470236
206.4000,0.468335
206.2000,0.469796
206.0000,0.47964
205.8000,0.475209
205.6000,0.471426
205.4000,0.476368
205.2000,0.472029
205.0000,0.476511
204.8000,0.475652
204.6000,0.468681
204.4000,0.471411
204.2000,0.475393
204.0000,0.475512
203.8000,0.465503
203.6000,0.46216
203.4000,0.468405
203.2000,0.473086
203.0000,0.469085
202.8000,0.46505
202.6000,0.469557
202.4000,0.470925
202.2000,0.467802
202.0000,0.46591
201.8000,0.465312
201.6000,0.473068
201.4000,0.474214
201.2000,0.476572
201.0000,0.481596
200.8000,0.471237
200.6000,0.470675
200.4000,0.469312
200.2000,0.461429
200.0000,0.462045

##### Extended Information
[Comments]
Sample name
Comment
Username
Division
Organization,IIT Gandhinagar

[Detailed Information]
Creation date,18-10-2022 18:47

Data array type,Linear data array
Horizontal axis,Wavelength [nm]
Vertical axis,Abs
Start,900 nm
End,200 nm
Data interval,0.2 nm
Data points,3501    

[Measurement Information]
Instrument name,UV-Vis Spectrometer
Model name,V-750
Serial No.,A009361799

Accessory,USE-753
Accessory S/N,A009361799
  Cell,
  Ref. beam,

Measurement date,18-10-2022 18:46

Photometric mode,Abs
Measurement range,900 - 200 nm
Data interval,0.2 nm
Bandwidth,1.0 nm
Response,0.06 sec
Scan mode,Continuous
Scan speed,400 nm/min
Change source at,340 nm
Light source,D2/WI
Filter exchange,Step
Correction,Baseline
No. of cycles,1

